Date: 20.2.2020 , In use by: Mena
Daytime: 12:11:3, Temperature: 26°C
ID, strain4A, strain4B, loadcell y, temp [°C], runtime [ms]
BASELINE Time: 12:11:27
1, 1865046.00, 8966941.00, 8492393.00,26, 0
2, 1864813.00, 8966917.00, 8492376.00,26, 0
3, 1864867.00, 8966962.00, 8492516.00,26, 104
4, 1864716.00, 8966987.00, 8492487.00,26, 209
5, 1864640.00, 8966993.00, 8492465.00,26, 313
6, 1864854.00, 8967020.00, 8492496.00,26, 418
7, 1864872.00, 8966995.00, 8492528.00,26, 522
8, 1864847.00, 8966949.00, 8492560.00,26, 627
9, 1864763.00, 8966971.00, 8492373.00,26, 731
10, 1864678.00, 8966928.00, 8492243.00,26, 836
11, 1864631.00, 8966838.00, 8492543.00,26, 940
12, 1864547.00, 8966792.00, 8492700.00,26, 1045
13, 1864437.00, 8966683.00, 8492310.00,26, 1149
14, 1864362.00, 8966597.00, 8492210.00,26, 1254
15, 1864301.00, 8966525.00, 8492662.00,26, 1358
16, 1864255.00, 8966525.00, 8492628.00,26, 1463
17, 1864177.00, 8966500.00, 8492581.00,26, 1567
18, 1864141.00, 8966483.00, 8492572.00,26, 1672
19, 1864165.00, 8966501.00, 8492529.00,26, 1776
20, 1864107.00, 8966464.00, 8492237.00,26, 1881
21, 1864052.00, 8966407.00, 8492264.00,26, 1985
22, 1863929.00, 8966398.00, 8492438.00,26, 2090
23, 1863913.00, 8966332.00, 8492553.00,26, 2194
24, 1863925.00, 8966285.00, 8492548.00,26, 2299
25, 1863826.00, 8966280.00, 8492507.00,26, 2403
26, 1863811.00, 8966245.00, 8492446.00,26, 2508
27, 1863785.00, 8966171.00, 8492496.00,26, 2612
28, 1863791.00, 8966066.00, 8492470.00,26, 2717
29, 1863825.00, 8965805.00, 8492315.00,26, 2821
30, 1863724.00, 8965836.00, 8492526.00,26, 2926
31, 1863683.00, 8965884.00, 8492553.00,26, 3030
32, 1863698.00, 8965878.00, 8492388.00,26, 3135
33, 1863658.00, 8965855.00, 8492573.00,26, 3239
34, 1863567.00, 8965850.00, 8492514.00,26, 3343
35, 1863489.00, 8965807.00, 8492551.00,26, 3448
36, 1863500.00, 8965792.00, 8492314.00,26, 3552
37, 1863509.00, 8965708.00, 8492313.00,26, 3657
38, 1863518.00, 8965731.00, 8492264.00,26, 3761
39, 1863491.00, 8965694.00, 8492448.00,26, 3866
40, 1863521.00, 8965654.00, 8492647.00,26, 3970
41, 1863536.00, 8965675.00, 8492586.00,26, 4075
42, 1863475.00, 8965656.00, 8492597.00,26, 4179
43, 1863414.00, 8965668.00, 8492391.00,26, 4284
44, 1863332.00, 8965652.00, 8492699.00,26, 4388
45, 1863347.00, 8965474.00, 8492697.00,26, 4493
46, 1863356.00, 8965440.00, 8492477.00,26, 4597
47, 1863380.00, 8965438.00, 8492485.00,26, 4702
48, 1863377.00, 8965418.00, 8492388.00,26, 4806
49, 1863300.00, 8965430.00, 8492354.00,26, 4911
50, 1863266.00, 8965454.00, 8492451.00,26, 5015
51, 1863285.00, 8965401.00, 8492684.00,26, 5120
52, 1863243.00, 8965346.00, 8492538.00,26, 5224
53, 1863229.00, 8965299.00, 8492494.00,26, 5329
54, 1863224.00, 8965229.00, 8492666.00,26, 5433
55, 1863213.00, 8965149.00, 8492701.00,26, 5538
56, 1863233.00, 8964977.00, 8492507.00,26, 5642
57, 1863231.00, 8964939.00, 8492335.00,26, 5747
58, 1863235.00, 8964974.00, 8492419.00,26, 5851
59, 1863204.00, 8965009.00, 8492249.00,26, 5956
60, 1863270.00, 8964991.00, 8492303.00,26, 6060
61, 1863255.00, 8964978.00, 8492516.00,26, 6165
62, 1863132.00, 8964946.00, 8492470.00,26, 6269
63, 1863102.00, 8964871.00, 8492546.00,26, 6374
64, 1863108.00, 8964880.00, 8492613.00,26, 6478
65, 1863113.00, 8964853.00, 8492611.00,26, 6583
66, 1863144.00, 8964790.00, 8492230.00,26, 6687
67, 1863133.00, 8964775.00, 8492229.00,26, 6792
68, 1863102.00, 8964747.00, 8492399.00,26, 6896
69, 1863031.00, 8964669.00, 8492297.00,26, 7001
70, 1862986.00, 8964670.00, 8492120.00,26, 7105
71, 1862987.00, 8964664.00, 8492428.00,26, 7210
72, 1862991.00, 8964640.00, 8492571.00,26, 7314
73, 1862961.00, 8964671.00, 8492691.00,26, 7419
74, 1862910.00, 8964619.00, 8492718.00,26, 7523
75, 1862853.00, 8964608.00, 8492661.00,26, 7628
76, 1862870.00, 8964571.00, 8492653.00,26, 7732
77, 1862893.00, 8964451.00, 8492543.00,26, 7837
78, 1862916.00, 8964478.00, 8492461.00,26, 7941
79, 1862884.00, 8964543.00, 8492419.00,26, 8046
80, 1862841.00, 8964482.00, 8492550.00,26, 8150
81, 1862799.00, 8964358.00, 8492329.00,26, 8255
82, 1862776.00, 8964338.00, 8492552.00,26, 8359
83, 1862784.00, 8964339.00, 8492576.00,26, 8464
84, 1862705.00, 8964371.00, 8492486.00,26, 8568
85, 1862706.00, 8964335.00, 8492624.00,26, 8673
86, 1862665.00, 8964307.00, 8492652.00,26, 8777
87, 1862609.00, 8964280.00, 8492444.00,26, 8882
88, 1862608.00, 8964267.00, 8492414.00,26, 8986
89, 1862598.00, 8964299.00, 8492494.00,26, 9091
90, 1862587.00, 8964245.00, 8492541.00,26, 9195
91, 1862610.00, 8964233.00, 8492773.00,26, 9299
92, 1862666.00, 8964243.00, 8492562.00,26, 9404
93, 1862582.00, 8964119.00, 8492365.00,26, 9508
94, 1862537.00, 8964122.00, 8492707.00,26, 9613
95, 1862483.00, 8964167.00, 8492535.00,26, 9717
96, 1862525.00, 8964160.00, 8492360.00,26, 9822
97, 1862479.00, 8964104.00, 8492589.00,26, 9926
98, 1862491.00, 8964041.00, 8492381.00,26, 10031
99, 1862484.00, 8963944.00, 8492577.00,26, 10135
100, 1862471.00, 8963946.00, 8492399.00,26, 10240
101, 1862467.00, 8963848.00, 8492429.00,26, 10344
102, 1862499.00, 8963864.00, 8492616.00,26, 10449
103, 1862464.00, 8963898.00, 8492339.00,26, 10553
104, 1862376.00, 8963913.00, 8492234.00,26, 10658
105, 1862279.00, 8963942.00, 8492442.00,26, 10762
106, 1862238.00, 8963951.00, 8492483.00,26, 10867
107, 1862308.00, 8964079.00, 8492422.00,26, 10971
108, 1862386.00, 8964143.00, 8492279.00,26, 11076
109, 1862357.00, 8964039.00, 8492451.00,26, 11180
110, 1862376.00, 8963889.00, 8492495.00,26, 11285
111, 1862310.00, 8963799.00, 8492515.00,26, 11389
112, 1862285.00, 8963752.00, 8492600.00,26, 11494
113, 1862257.00, 8963748.00, 8492516.00,26, 11598
114, 1862254.00, 8963757.00, 8492676.00,26, 11703
115, 1862251.00, 8963693.00, 8492508.00,26, 11807
116, 1862235.00, 8963689.00, 8492425.00,26, 11912
117, 1862246.00, 8963642.00, 8492473.00,26, 12016
118, 1862265.00, 8963719.00, 8492542.00,26, 12121
119, 1862254.00, 8963772.00, 8492403.00,26, 12225
120, 1862039.00, 8963673.00, 8492266.00,26, 12330
BASELINE Time: 12:11:40
RECORDING Time: 12:11:46
1, 1860613.00, 8963204.00, 8492172.00,26, 0
2, 1860533.00, 8963216.00, 8492182.00,26, 0
3, 1860544.00, 8963301.00, 8492555.00,26, 105
4, 1859707.00, 8963277.00, 8492594.00,26, 209
5, 1858603.00, 8963171.00, 8492641.00,26, 314
6, 1858688.00, 8963170.00, 8492638.00,26, 418
7, 1858703.00, 8963087.00, 8492468.00,26, 523
8, 1858677.00, 8963027.00, 8492250.00,26, 627
9, 1858551.00, 8962911.00, 8492351.00,26, 732
10, 1858478.00, 8962832.00, 8492398.00,26, 836
11, 1858502.00, 8962792.00, 8492483.00,26, 941
12, 1858491.00, 8962776.00, 8492435.00,26, 1045
13, 1858521.00, 8962702.00, 8492274.00,26, 1150
14, 1858514.00, 8962705.00, 8492395.00,26, 1254
15, 1858461.00, 8962658.00, 8492536.00,26, 1359
16, 1858349.00, 8962619.00, 8492396.00,26, 1463
17, 1858241.00, 8962538.00, 8492721.00,26, 1568
18, 1858222.00, 8962498.00, 8492646.00,26, 1672
19, 1858238.00, 8962463.00, 8492469.00,26, 1777
20, 1858316.00, 8962451.00, 8492304.00,26, 1881
21, 1858304.00, 8962373.00, 8492366.00,26, 1986
22, 1858283.00, 8962359.00, 8492469.00,26, 2090
23, 1858251.00, 8962370.00, 8492524.00,26, 2195
24, 1858228.00, 8962309.00, 8492558.00,26, 2299
25, 1858176.00, 8962192.00, 8492637.00,26, 2404
26, 1858122.00, 8962140.00, 8492524.00,26, 2508
27, 1858116.00, 8962180.00, 8492592.00,26, 2613
28, 1858126.00, 8962188.00, 8492402.00,26, 2717
29, 1858124.00, 8962082.00, 8492319.00,26, 2822
30, 1858132.00, 8962054.00, 8492431.00,26, 2926
31, 1858139.00, 8962083.00, 8492462.00,26, 3031
32, 1858139.00, 8962054.00, 8492443.00,26, 3135
33, 1858102.00, 8962028.00, 8492520.00,26, 3240
34, 1858064.00, 8961938.00, 8492343.00,26, 3344
35, 1858076.00, 8961969.00, 8492397.00,26, 3449
36, 1858096.00, 8961932.00, 8492230.00,26, 3553
37, 1858060.00, 8961830.00, 8492139.00,26, 3658
38, 1858057.00, 8961899.00, 8492461.00,26, 3762
39, 1858020.00, 8961888.00, 8492536.00,26, 3867
40, 1857986.00, 8961821.00, 8492560.00,26, 3971
41, 1857969.00, 8961901.00, 8492523.00,26, 4076
42, 1858025.00, 8961880.00, 8492391.00,26, 4180
43, 1858031.00, 8961918.00, 8492502.00,26, 4285
44, 1858022.00, 8961905.00, 8492459.00,26, 4389
45, 1858072.00, 8961905.00, 8492488.00,26, 4494
46, 1858064.00, 8961894.00, 8492444.00,26, 4598
47, 1857999.00, 8961842.00, 8492468.00,26, 4703
48, 1857945.00, 8961847.00, 8492490.00,26, 4807
49, 1857999.00, 8961824.00, 8492468.00,26, 4912
50, 1858037.00, 8961778.00, 8492477.00,26, 5016
51, 1858013.00, 8961786.00, 8492577.00,26, 5121
52, 1857978.00, 8961745.00, 8492756.00,26, 5225
53, 1858005.00, 8961748.00, 8492419.00,26, 5330
54, 1858008.00, 8961749.00, 8492514.00,26, 5434
55, 1858016.00, 8961774.00, 8492587.00,26, 5538
56, 1858026.00, 8961753.00, 8492716.00,26, 5643
57, 1857969.00, 8961643.00, 8492486.00,26, 5747
58, 1857938.00, 8961631.00, 8492279.00,26, 5852
59, 1857971.00, 8961685.00, 8492320.00,26, 5956
60, 1857976.00, 8961640.00, 8492256.00,26, 6061
61, 1857985.00, 8961594.00, 8492461.00,26, 6165
62, 1857937.00, 8961563.00, 8492573.00,26, 6270
63, 1857932.00, 8961591.00, 8492482.00,26, 6374
64, 1857961.00, 8961580.00, 8492334.00,26, 6479
65, 1858036.00, 8961521.00, 8492520.00,26, 6583
66, 1858057.00, 8961547.00, 8492568.00,26, 6688
67, 1857992.00, 8961472.00, 8492653.00,26, 6792
68, 1857911.00, 8961474.00, 8492696.00,26, 6897
69, 1857931.00, 8961521.00, 8492479.00,26, 7001
70, 1857992.00, 8961538.00, 8492578.00,26, 7106
71, 1857981.00, 8961393.00, 8492507.00,26, 7210
72, 1857989.00, 8961385.00, 8492451.00,26, 7315
73, 1857950.00, 8961344.00, 8492501.00,26, 7419
74, 1857934.00, 8961333.00, 8492383.00,26, 7524
75, 1857977.00, 8961335.00, 8492324.00,26, 7628
76, 1857991.00, 8961322.00, 8492498.00,26, 7733
77, 1857956.00, 8961366.00, 8492419.00,26, 7837
78, 1857965.00, 8961442.00, 8492280.00,26, 7942
79, 1857882.00, 8961422.00, 8492433.00,26, 8046
80, 1857901.00, 8961351.00, 8492707.00,26, 8151
81, 1857940.00, 8961356.00, 8492540.00,26, 8255
82, 1858004.00, 8961263.00, 8492558.00,26, 8360
83, 1857966.00, 8961242.00, 8492522.00,26, 8464
84, 1857944.00, 8961237.00, 8492470.00,26, 8569
85, 1857935.00, 8961169.00, 8492593.00,26, 8673
86, 1857940.00, 8961140.00, 8492706.00,26, 8778
87, 1857976.00, 8961186.00, 8492687.00,26, 8882
88, 1857990.00, 8961145.00, 8492947.00,26, 8987
89, 1857960.00, 8960830.00, 8493423.00,26, 9091
90, 1857945.00, 8960918.00, 8493425.00,26, 9196
91, 1857899.00, 8961083.00, 8493096.00,26, 9300
92, 1857948.00, 8961024.00, 8493122.00,26, 9405
93, 1858049.00, 8960649.00, 8493840.00,26, 9509
94, 1858010.00, 8960351.00, 8494975.00,26, 9614
95, 1857875.00, 8960838.00, 8494198.00,26, 9718
96, 1857556.00, 8961768.00, 8493988.00,26, 9823
97, 1857307.00, 8964172.00, 8494346.00,26, 9927
98, 1857108.00, 8964863.00, 8493970.00,26, 10032
99, 1857004.00, 8965389.00, 8494250.00,26, 10136
100, 1857005.00, 8965161.00, 8496557.00,26, 10241
101, 1856821.00, 8965399.00, 8498719.00,26, 10345
102, 1856405.00, 8967335.00, 8494765.00,26, 10450
103, 1856217.00, 8968576.00, 8494646.00,26, 10554
104, 1856295.00, 8968804.00, 8495882.00,26, 10659
105, 1856753.00, 8966062.00, 8499856.00,26, 10763
106, 1857060.00, 8965343.00, 8503060.00,26, 10868
107, 1857220.00, 8965190.00, 8502244.00,26, 10972
108, 1858852.00, 8958699.00, 8507404.00,26, 11077
109, 1860067.00, 8953466.00, 8522999.00,26, 11181
110, 1861755.00, 8948505.00, 8530394.00,26, 11286
111, 1868548.00, 8934677.00, 8536403.00,26, 11390
112, 1874924.00, 8893886.00, 8537268.00,26, 11495
113, 1875146.00, 8880930.00, 8535574.00,26, 11599
114, 1875041.00, 8881025.00, 8535087.00,26, 11704
115, 1874867.00, 8881376.00, 8535126.00,26, 11808
116, 1874750.00, 8881638.00, 8535581.00,26, 11913
117, 1874679.00, 8881987.00, 8535446.00,26, 12017
118, 1874645.00, 8882110.00, 8535471.00,26, 12122
119, 1874611.00, 8882150.00, 8535242.00,26, 12226
120, 1874641.00, 8882058.00, 8535096.00,26, 12331
121, 1874585.00, 8882063.00, 8535083.00,26, 12435
122, 1874550.00, 8882162.00, 8535264.00,26, 12540
123, 1874569.00, 8882152.00, 8535294.00,26, 12644
124, 1874549.00, 8882096.00, 8535285.00,26, 12749
125, 1874540.00, 8882046.00, 8535080.00,26, 12853
126, 1874546.00, 8881944.00, 8535156.00,26, 12958
127, 1874549.00, 8881903.00, 8535281.00,26, 13062
128, 1874541.00, 8881968.00, 8535247.00,26, 13167
129, 1874512.00, 8881940.00, 8535316.00,26, 13271
130, 1874453.00, 8881815.00, 8535485.00,26, 13376
131, 1874455.00, 8881778.00, 8535311.00,26, 13480
132, 1874508.00, 8881736.00, 8535128.00,26, 13585
133, 1874493.00, 8881708.00, 8535193.00,26, 13689
134, 1874495.00, 8881690.00, 8535225.00,26, 13794
135, 1874500.00, 8881702.00, 8535287.00,26, 13898
136, 1874474.00, 8881654.00, 8535313.00,26, 14003
137, 1874456.00, 8881537.00, 8535288.00,26, 14107
138, 1874390.00, 8881575.00, 8535146.00,26, 14212
139, 1874383.00, 8881615.00, 8535190.00,26, 14316
140, 1874417.00, 8881641.00, 8535158.00,26, 14421
141, 1874367.00, 8881689.00, 8535060.00,26, 14525
142, 1874303.00, 8881830.00, 8535105.00,26, 14630
143, 1874300.00, 8881804.00, 8535284.00,26, 14734
144, 1874394.00, 8881736.00, 8535126.00,26, 14839
145, 1874408.00, 8881581.00, 8535284.00,26, 14943
146, 1874365.00, 8881602.00, 8535384.00,26, 15048
147, 1874344.00, 8881621.00, 8535253.00,26, 15152
148, 1874296.00, 8881538.00, 8535282.00,26, 15257
149, 1874337.00, 8881505.00, 8535269.00,26, 15361
150, 1874281.00, 8881480.00, 8535370.00,26, 15466
151, 1874227.00, 8881507.00, 8535049.00,26, 15570
152, 1874198.00, 8881557.00, 8535210.00,26, 15675
153, 1874183.00, 8881538.00, 8535382.00,26, 15779
154, 1874229.00, 8881509.00, 8535080.00,26, 15884
155, 1874198.00, 8881524.00, 8535138.00,26, 15988
156, 1874154.00, 8881515.00, 8535138.00,26, 16093
157, 1874137.00, 8881514.00, 8535154.00,26, 16197
158, 1874103.00, 8881504.00, 8535116.00,26, 16302
159, 1874037.00, 8881516.00, 8535353.00,26, 16406
160, 1874033.00, 8881545.00, 8535291.00,26, 16511
161, 1874039.00, 8881476.00, 8535089.00,26, 16615
162, 1874065.00, 8881433.00, 8535200.00,26, 16720
163, 1874035.00, 8881440.00, 8535182.00,26, 16824
164, 1874062.00, 8881420.00, 8535265.00,26, 16929
165, 1874083.00, 8881397.00, 8535341.00,26, 17033
166, 1874053.00, 8881441.00, 8535309.00,26, 17138
167, 1874078.00, 8881429.00, 8535329.00,26, 17242
168, 1874079.00, 8881385.00, 8535195.00,26, 17347
169, 1874029.00, 8881407.00, 8535213.00,26, 17451
170, 1874016.00, 8881387.00, 8535125.00,26, 17556
171, 1873980.00, 8881358.00, 8535094.00,26, 17660
172, 1873996.00, 8881390.00, 8535208.00,26, 17765
173, 1873980.00, 8881399.00, 8535087.00,26, 17869
174, 1873933.00, 8881442.00, 8535074.00,26, 17974
175, 1873954.00, 8881441.00, 8535056.00,26, 18078
176, 1873966.00, 8881440.00, 8535302.00,26, 18183
177, 1873913.00, 8881395.00, 8535221.00,26, 18287
178, 1873913.00, 8881381.00, 8535073.00,26, 18392
179, 1873901.00, 8881391.00, 8535347.00,26, 18496
180, 1873851.00, 8881412.00, 8535102.00,26, 18601
181, 1873836.00, 8881439.00, 8535161.00,26, 18705
182, 1873813.00, 8881472.00, 8535146.00,26, 18810
183, 1873819.00, 8881441.00, 8535133.00,26, 18914
184, 1873788.00, 8881421.00, 8535326.00,26, 19019
185, 1873794.00, 8881460.00, 8535342.00,26, 19123
186, 1873798.00, 8881505.00, 8535189.00,26, 19228
187, 1873814.00, 8881524.00, 8535226.00,26, 19332
188, 1873792.00, 8881462.00, 8535233.00,26, 19437
189, 1873831.00, 8881436.00, 8535191.00,26, 19541
190, 1873714.00, 8881616.00, 8535227.00,26, 19646
191, 1873594.00, 8881831.00, 8535426.00,26, 19750
192, 1873577.00, 8881966.00, 8535475.00,26, 19855
193, 1873565.00, 8882043.00, 8535352.00,26, 19959
194, 1873557.00, 8881996.00, 8535322.00,26, 20064
195, 1873561.00, 8881932.00, 8535430.00,26, 20168
196, 1873545.00, 8881886.00, 8535177.00,26, 20273
197, 1873592.00, 8881794.00, 8535187.00,26, 20377
198, 1873623.00, 8881768.00, 8535073.00,26, 20482
199, 1873612.00, 8881695.00, 8535003.00,26, 20586
200, 1873572.00, 8881576.00, 8535296.00,26, 20691
201, 1873551.00, 8881590.00, 8535222.00,26, 20795
202, 1873557.00, 8881591.00, 8535146.00,26, 20900
203, 1873574.00, 8881556.00, 8535233.00,26, 21004
204, 1873524.00, 8881518.00, 8535139.00,26, 21109
205, 1873525.00, 8881564.00, 8535133.00,26, 21213
206, 1873502.00, 8881527.00, 8535001.00,26, 21318
207, 1873467.00, 8881501.00, 8535275.00,26, 21422
208, 1873451.00, 8881524.00, 8535278.00,26, 21527
209, 1873408.00, 8881543.00, 8535408.00,26, 21631
210, 1873426.00, 8881581.00, 8535358.00,26, 21736
211, 1873436.00, 8881578.00, 8535212.00,26, 21840
212, 1873422.00, 8881530.00, 8535347.00,26, 21945
213, 1873428.00, 8881561.00, 8535100.00,26, 22049
214, 1873368.00, 8881513.00, 8535378.00,26, 22153
215, 1873345.00, 8881444.00, 8535457.00,26, 22258
216, 1873408.00, 8881396.00, 8535369.00,26, 22362
217, 1873356.00, 8881426.00, 8535257.00,26, 22467
218, 1873319.00, 8881431.00, 8535318.00,26, 22571
219, 1873362.00, 8881430.00, 8535424.00,26, 22676
220, 1873356.00, 8881436.00, 8535381.00,26, 22780
221, 1873345.00, 8881454.00, 8535255.00,26, 22885
222, 1873309.00, 8881492.00, 8535058.00,26, 22989
223, 1873261.00, 8881427.00, 8535134.00,26, 23094
224, 1873203.00, 8881302.00, 8535238.00,26, 23198
225, 1873197.00, 8881388.00, 8535373.00,26, 23303
226, 1873215.00, 8881434.00, 8535494.00,26, 23407
227, 1873198.00, 8881386.00, 8535345.00,26, 23512
228, 1873220.00, 8881329.00, 8535392.00,26, 23616
229, 1873211.00, 8881375.00, 8535230.00,26, 23721
230, 1873255.00, 8881385.00, 8535371.00,26, 23825
231, 1873181.00, 8881358.00, 8535208.00,26, 23930
232, 1873101.00, 8881256.00, 8535146.00,26, 24034
233, 1873169.00, 8881235.00, 8535300.00,26, 24139
234, 1873184.00, 8881192.00, 8535439.00,26, 24243
235, 1873153.00, 8881241.00, 8535501.00,26, 24348
236, 1873135.00, 8881319.00, 8535309.00,26, 24452
237, 1873142.00, 8881284.00, 8535319.00,26, 24557
238, 1873115.00, 8881242.00, 8535387.00,26, 24661
239, 1873113.00, 8881132.00, 8535273.00,26, 24766
240, 1873070.00, 8881197.00, 8535300.00,26, 24870
241, 1873074.00, 8881175.00, 8535371.00,26, 24975
242, 1873103.00, 8881206.00, 8535412.00,26, 25079
243, 1873140.00, 8881239.00, 8535260.00,26, 25184
244, 1873082.00, 8881235.00, 8535413.00,26, 25288
245, 1873039.00, 8881187.00, 8535319.00,26, 25393
246, 1873053.00, 8881131.00, 8535400.00,26, 25497
247, 1873156.00, 8880851.00, 8536193.00,26, 25602
248, 1873203.00, 8880280.00, 8537141.00,26, 25706
249, 1873186.00, 8880357.00, 8536544.00,26, 25811
250, 1873203.00, 8880372.00, 8536649.00,26, 25915
251, 1873215.00, 8880058.00, 8537465.00,26, 26020
252, 1873292.00, 8879644.00, 8538416.00,26, 26124
253, 1873350.00, 8879457.00, 8538813.00,26, 26229
254, 1873473.00, 8879086.00, 8539352.00,26, 26333
255, 1873601.00, 8878568.00, 8540452.00,26, 26438
256, 1873749.00, 8878069.00, 8541282.00,26, 26542
257, 1873953.00, 8877072.00, 8540998.00,26, 26647
258, 1874062.00, 8876793.00, 8541534.00,26, 26751
259, 1874147.00, 8876144.00, 8542568.00,26, 26856
260, 1874111.00, 8876248.00, 8541223.00,26, 26960
261, 1874309.00, 8875802.00, 8541171.00,26, 27065
262, 1874471.00, 8874915.00, 8543293.00,26, 27169
263, 1875051.00, 8873844.00, 8552648.00,26, 27274
264, 1876417.00, 8869847.00, 8560195.00,26, 27378
265, 1878115.00, 8856840.00, 8562600.00,26, 27483
266, 1888617.00, 8804236.00, 8575232.00,26, 27587
267, 1899998.00, 8746672.00, 8582048.00,26, 27692
268, 1901085.00, 8739816.00, 8579818.00,26, 27796
269, 1900997.00, 8739193.00, 8579285.00,26, 27901
270, 1900930.00, 8738996.00, 8579218.00,26, 28005
271, 1901073.00, 8738286.00, 8579360.00,26, 28110
272, 1901206.00, 8737005.00, 8579290.00,26, 28214
273, 1901186.00, 8735979.00, 8579253.00,26, 28319
274, 1901189.00, 8735111.00, 8579342.00,26, 28423
275, 1901247.00, 8734487.00, 8579405.00,26, 28528
276, 1901283.00, 8734278.00, 8579521.00,26, 28632
277, 1901323.00, 8733895.00, 8579537.00,26, 28737
278, 1901322.00, 8733673.00, 8579332.00,26, 28841
279, 1901374.00, 8733297.00, 8579235.00,26, 28946
280, 1901438.00, 8732619.00, 8579500.00,26, 29050
281, 1901563.00, 8731291.00, 8579509.00,26, 29155
282, 1901688.00, 8730654.00, 8579420.00,26, 29259
283, 1901832.00, 8730030.00, 8579552.00,26, 29364
284, 1901870.00, 8729539.00, 8579348.00,26, 29468
285, 1901890.00, 8729240.00, 8579350.00,26, 29573
286, 1901895.00, 8728995.00, 8579233.00,26, 29677
287, 1901939.00, 8728653.00, 8579215.00,26, 29782
288, 1901990.00, 8728182.00, 8579345.00,26, 29886
289, 1902119.00, 8727267.00, 8579210.00,26, 29991
290, 1902198.00, 8726698.00, 8579175.00,26, 30095
291, 1902237.00, 8726222.00, 8579317.00,26, 30200
292, 1902388.00, 8725709.00, 8579381.00,26, 30304
293, 1902540.00, 8725007.00, 8579217.00,26, 30409
294, 1902537.00, 8724493.00, 8579032.00,26, 30513
295, 1902546.00, 8724146.00, 8579212.00,26, 30618
296, 1902591.00, 8723951.00, 8579206.00,26, 30722
297, 1902622.00, 8723195.00, 8579000.00,26, 30827
298, 1902658.00, 8722809.00, 8578834.00,26, 30931
299, 1902700.00, 8722445.00, 8579190.00,26, 31036
300, 1902775.00, 8722045.00, 8579218.00,26, 31140
301, 1902871.00, 8721634.00, 8579209.00,26, 31245
302, 1902862.00, 8721439.00, 8579349.00,26, 31349
303, 1902874.00, 8721355.00, 8579384.00,26, 31454
304, 1902886.00, 8721145.00, 8579125.00,26, 31558
305, 1902837.00, 8721113.00, 8578548.00,26, 31663
306, 1902883.00, 8720768.00, 8577365.00,26, 31767
307, 1902931.00, 8720293.00, 8576838.00,26, 31872
308, 1903108.00, 8719534.00, 8577452.00,26, 31976
309, 1903256.00, 8718780.00, 8578713.00,26, 32081
310, 1903257.00, 8718419.00, 8579309.00,26, 32185
311, 1903221.00, 8718273.00, 8579247.00,26, 32290
312, 1903246.00, 8718121.00, 8579149.00,26, 32394
313, 1903228.00, 8718328.00, 8579045.00,26, 32499
314, 1903170.00, 8718333.00, 8579145.00,26, 32603
315, 1903128.00, 8718252.00, 8579312.00,26, 32708
316, 1903156.00, 8718191.00, 8579106.00,26, 32812
317, 1903144.00, 8718025.00, 8579158.00,26, 32917
318, 1903128.00, 8717868.00, 8579322.00,26, 33021
319, 1903129.00, 8717782.00, 8579143.00,26, 33126
320, 1903149.00, 8717671.00, 8579155.00,26, 33230
321, 1903117.00, 8717411.00, 8579269.00,26, 33335
322, 1903153.00, 8717288.00, 8579276.00,26, 33439
323, 1903203.00, 8717180.00, 8579122.00,26, 33544
324, 1903177.00, 8717004.00, 8579068.00,26, 33648
325, 1903156.00, 8716906.00, 8579116.00,26, 33753
326, 1903168.00, 8716852.00, 8579317.00,26, 33857
327, 1903180.00, 8716688.00, 8579217.00,26, 33962
328, 1903180.00, 8716587.00, 8579320.00,26, 34066
329, 1903175.00, 8716485.00, 8579113.00,26, 34171
330, 1903199.00, 8716382.00, 8578963.00,26, 34275
331, 1903149.00, 8716293.00, 8579203.00,26, 34380
332, 1903110.00, 8716254.00, 8579165.00,26, 34484
333, 1903078.00, 8716219.00, 8579237.00,26, 34589
334, 1903058.00, 8716097.00, 8579313.00,26, 34693
335, 1903128.00, 8716014.00, 8579263.00,26, 34798
336, 1903174.00, 8715917.00, 8579258.00,26, 34902
337, 1903187.00, 8715715.00, 8579232.00,26, 35007
338, 1903217.00, 8715622.00, 8579216.00,26, 35111
339, 1903229.00, 8715616.00, 8579220.00,26, 35216
340, 1903173.00, 8715553.00, 8579226.00,26, 35320
341, 1903248.00, 8715459.00, 8578977.00,26, 35425
342, 1903341.00, 8715333.00, 8579106.00,26, 35529
343, 1903303.00, 8715169.00, 8579048.00,26, 35634
344, 1903248.00, 8715121.00, 8579079.00,26, 35738
345, 1903235.00, 8714995.00, 8579163.00,26, 35843
346, 1903215.00, 8714969.00, 8579408.00,26, 35947
347, 1903217.00, 8714922.00, 8579391.00,26, 36052
348, 1903217.00, 8714856.00, 8579476.00,26, 36156
349, 1903190.00, 8714805.00, 8579456.00,26, 36261
350, 1903215.00, 8714716.00, 8579310.00,26, 36365
351, 1903222.00, 8714656.00, 8579271.00,26, 36470
352, 1903201.00, 8714621.00, 8579317.00,26, 36574
353, 1903221.00, 8714420.00, 8579067.00,26, 36679
354, 1903270.00, 8714342.00, 8578916.00,26, 36783
355, 1903295.00, 8714284.00, 8579309.00,26, 36888
356, 1903280.00, 8714197.00, 8579294.00,26, 36992
357, 1903298.00, 8714058.00, 8579396.00,26, 37097
358, 1903264.00, 8713956.00, 8579324.00,26, 37201
359, 1903198.00, 8713881.00, 8579329.00,26, 37306
360, 1903240.00, 8713833.00, 8579095.00,26, 37410
361, 1903268.00, 8713640.00, 8579150.00,26, 37515
362, 1903228.00, 8713583.00, 8579064.00,26, 37619
363, 1903233.00, 8713487.00, 8579153.00,26, 37724
364, 1903233.00, 8713371.00, 8579130.00,26, 37828
365, 1903249.00, 8713393.00, 8579085.00,26, 37933
366, 1903205.00, 8713390.00, 8579077.00,26, 38037
367, 1903180.00, 8713311.00, 8579003.00,26, 38142
368, 1903113.00, 8713254.00, 8579023.00,26, 38246
369, 1903095.00, 8713172.00, 8579229.00,26, 38351
370, 1903170.00, 8713159.00, 8579271.00,26, 38455
371, 1903196.00, 8713099.00, 8579118.00,26, 38560
372, 1903121.00, 8712922.00, 8579274.00,26, 38664
373, 1903152.00, 8712873.00, 8579288.00,26, 38769
374, 1903180.00, 8712788.00, 8579169.00,26, 38873
375, 1903186.00, 8712682.00, 8579239.00,26, 38978
376, 1903167.00, 8712620.00, 8579083.00,26, 39082
377, 1903160.00, 8712425.00, 8579134.00,26, 39187
378, 1903158.00, 8712404.00, 8579162.00,26, 39291
379, 1903185.00, 8712317.00, 8579329.00,26, 39396
380, 1903221.00, 8712231.00, 8579441.00,26, 39500
381, 1903203.00, 8712168.00, 8579203.00,26, 39605
382, 1903148.00, 8712140.00, 8579259.00,26, 39709
383, 1903120.00, 8712040.00, 8579221.00,26, 39814
384, 1903105.00, 8711972.00, 8579188.00,26, 39918
385, 1903085.00, 8711968.00, 8579126.00,26, 40023
386, 1903117.00, 8711922.00, 8579013.00,26, 40127
387, 1903077.00, 8711881.00, 8579055.00,26, 40232
388, 1903061.00, 8711885.00, 8578994.00,26, 40336
389, 1903058.00, 8711836.00, 8579210.00,26, 40441
390, 1903107.00, 8711738.00, 8579194.00,26, 40545
391, 1903073.00, 8711694.00, 8579205.00,26, 40650
392, 1903089.00, 8711620.00, 8579237.00,26, 40754
393, 1903074.00, 8711502.00, 8579295.00,26, 40859
394, 1903089.00, 8711395.00, 8579310.00,26, 40963
395, 1903118.00, 8711308.00, 8579337.00,26, 41068
396, 1903129.00, 8711225.00, 8579131.00,26, 41172
397, 1903098.00, 8711135.00, 8579508.00,26, 41277
398, 1903066.00, 8711122.00, 8579369.00,26, 41381
399, 1903042.00, 8711079.00, 8579209.00,26, 41485
400, 1903040.00, 8711020.00, 8579287.00,26, 41590
401, 1903049.00, 8710984.00, 8579082.00,26, 41694
402, 1903033.00, 8710953.00, 8579038.00,26, 41799
403, 1903002.00, 8710925.00, 8579213.00,26, 41903
404, 1903005.00, 8710913.00, 8579327.00,26, 42008
405, 1903007.00, 8710856.00, 8579318.00,26, 42112
406, 1903018.00, 8710847.00, 8579311.00,26, 42217
407, 1902953.00, 8710813.00, 8579390.00,26, 42321
408, 1902925.00, 8710716.00, 8579310.00,26, 42426
409, 1902989.00, 8710621.00, 8579154.00,26, 42530
410, 1902997.00, 8710530.00, 8579262.00,26, 42635
411, 1902911.00, 8710422.00, 8579268.00,26, 42739
412, 1902889.00, 8710313.00, 8579322.00,26, 42844
413, 1902893.00, 8710265.00, 8579054.00,26, 42948
414, 1902891.00, 8710213.00, 8579044.00,26, 43053
415, 1902938.00, 8710154.00, 8579085.00,26, 43157
416, 1903007.00, 8710091.00, 8579172.00,26, 43262
417, 1903021.00, 8709804.00, 8579439.00,26, 43366
418, 1903012.00, 8709574.00, 8580141.00,26, 43471
419, 1903086.00, 8709345.00, 8580401.00,26, 43575
420, 1903161.00, 8708704.00, 8581574.00,26, 43680
421, 1903236.00, 8708303.00, 8581731.00,26, 43784
422, 1903355.00, 8708081.00, 8581829.00,26, 43889
423, 1903521.00, 8707193.00, 8583575.00,26, 43993
424, 1903642.00, 8706235.00, 8584528.00,26, 44098
425, 1903794.00, 8705263.00, 8584590.00,26, 44202
426, 1904172.00, 8703624.00, 8587704.00,26, 44307
427, 1905061.00, 8699992.00, 8592158.00,26, 44411
428, 1906445.00, 8694494.00, 8595798.00,26, 44516
429, 1908416.00, 8685426.00, 8599299.00,26, 44620
430, 1909588.00, 8675714.00, 8601405.00,26, 44725
431, 1909929.00, 8671960.00, 8600608.00,26, 44829
432, 1910147.00, 8669646.00, 8600468.00,26, 44934
433, 1910353.00, 8665905.00, 8600622.00,26, 45038
434, 1910609.00, 8663894.00, 8600722.00,26, 45143
435, 1910812.00, 8662095.00, 8600768.00,26, 45247
436, 1911052.00, 8660379.00, 8600711.00,26, 45352
437, 1911266.00, 8658815.00, 8600749.00,26, 45457
438, 1911457.00, 8657375.00, 8600645.00,26, 45561
439, 1911641.00, 8655971.00, 8600791.00,26, 45666
440, 1911802.00, 8654625.00, 8600572.00,26, 45770
441, 1911923.00, 8652187.00, 8600528.00,26, 45875
442, 1912156.00, 8650961.00, 8600665.00,26, 45979
443, 1912315.00, 8649815.00, 8600726.00,26, 46084
444, 1912404.00, 8648775.00, 8600816.00,26, 46188
445, 1912527.00, 8647809.00, 8600424.00,26, 46293
446, 1912606.00, 8646809.00, 8600857.00,26, 46397
447, 1912745.00, 8645923.00, 8600770.00,26, 46502
448, 1912903.00, 8644957.00, 8600629.00,26, 46606
449, 1913017.00, 8643097.00, 8600545.00,26, 46711
450, 1913127.00, 8642126.00, 8600521.00,26, 46815
451, 1913324.00, 8641137.00, 8600471.00,26, 46920
452, 1913432.00, 8640282.00, 8600384.00,26, 47024
453, 1913506.00, 8639473.00, 8600713.00,26, 47129
454, 1913654.00, 8638704.00, 8600663.00,26, 47233
455, 1913736.00, 8637770.00, 8600854.00,26, 47338
456, 1913757.00, 8636971.00, 8600708.00,26, 47442
457, 1913825.00, 8635554.00, 8600622.00,26, 47547
458, 1913935.00, 8634849.00, 8600595.00,26, 47651
459, 1914036.00, 8634214.00, 8600691.00,26, 47756
460, 1914110.00, 8633584.00, 8600869.00,26, 47860
461, 1914133.00, 8632980.00, 8600747.00,26, 47965
462, 1914170.00, 8632421.00, 8600372.00,26, 48069
463, 1914244.00, 8631852.00, 8600490.00,26, 48174
464, 1914330.00, 8631300.00, 8600423.00,26, 48278
465, 1914472.00, 8630141.00, 8600510.00,26, 48383
466, 1914519.00, 8629594.00, 8600752.00,26, 48487
467, 1914545.00, 8628999.00, 8600619.00,26, 48592
468, 1914670.00, 8628319.00, 8600535.00,26, 48696
469, 1914790.00, 8627718.00, 8600536.00,26, 48801
470, 1914837.00, 8627201.00, 8600311.00,26, 48905
471, 1914874.00, 8626695.00, 8600293.00,26, 49010
472, 1914927.00, 8626204.00, 8600515.00,26, 49114
473, 1914940.00, 8625156.00, 8600585.00,26, 49219
474, 1914945.00, 8624759.00, 8600562.00,26, 49323
475, 1915075.00, 8624303.00, 8600624.00,26, 49428
476, 1915133.00, 8623874.00, 8600833.00,26, 49532
477, 1915159.00, 8623439.00, 8600692.00,26, 49637
478, 1915190.00, 8622996.00, 8600707.00,26, 49741
479, 1915160.00, 8622619.00, 8600583.00,26, 49846
480, 1915147.00, 8622250.00, 8600563.00,26, 49950
481, 1915165.00, 8621604.00, 8600637.00,26, 50055
482, 1915203.00, 8621249.00, 8600766.00,26, 50159
483, 1915250.00, 8620822.00, 8600835.00,26, 50264
484, 1915255.00, 8620344.00, 8600553.00,26, 50368
485, 1915370.00, 8619830.00, 8600481.00,26, 50473
486, 1915502.00, 8619280.00, 8600413.00,26, 50577
487, 1915546.00, 8618871.00, 8600613.00,26, 50682
488, 1915586.00, 8618492.00, 8600655.00,26, 50786
489, 1915621.00, 8617694.00, 8600718.00,26, 50890
490, 1915651.00, 8617390.00, 8600750.00,26, 50995
491, 1915647.00, 8617082.00, 8600596.00,26, 51099
492, 1915672.00, 8616681.00, 8600486.00,26, 51204
493, 1915673.00, 8616308.00, 8600575.00,26, 51308
494, 1915720.00, 8615961.00, 8600547.00,26, 51413
495, 1915775.00, 8615599.00, 8600870.00,26, 51517
496, 1915729.00, 8615276.00, 8600904.00,26, 51622
497, 1915747.00, 8614832.00, 8600693.00,26, 51726
498, 1915740.00, 8614605.00, 8600507.00,26, 51831
499, 1915715.00, 8614299.00, 8600618.00,26, 51935
500, 1915761.00, 8614016.00, 8600848.00,26, 52040
501, 1915775.00, 8613714.00, 8600817.00,26, 52144
502, 1915836.00, 8613315.00, 8600664.00,26, 52249
503, 1915942.00, 8612934.00, 8600745.00,26, 52353
504, 1915970.00, 8612530.00, 8600610.00,26, 52458
505, 1916029.00, 8611761.00, 8600649.00,26, 52562
506, 1916059.00, 8611501.00, 8600641.00,26, 52667
507, 1916095.00, 8611217.00, 8600332.00,26, 52771
508, 1916089.00, 8611021.00, 8600288.00,26, 52876
509, 1916086.00, 8610775.00, 8600519.00,26, 52980
510, 1916077.00, 8610480.00, 8600723.00,26, 53085
511, 1916125.00, 8610217.00, 8600748.00,26, 53189
512, 1916200.00, 8609950.00, 8600663.00,26, 53294
513, 1916177.00, 8609486.00, 8600705.00,26, 53398
514, 1916121.00, 8609315.00, 8600759.00,26, 53503
515, 1916077.00, 8609137.00, 8600495.00,26, 53607
516, 1916106.00, 8608996.00, 8600710.00,26, 53712
517, 1916150.00, 8608790.00, 8600754.00,26, 53816
518, 1916188.00, 8608568.00, 8600656.00,26, 53921
519, 1916163.00, 8608323.00, 8600616.00,26, 54025
520, 1916217.00, 8607955.00, 8600509.00,26, 54130
521, 1916262.00, 8607363.00, 8600376.00,26, 54234
522, 1916309.00, 8606996.00, 8600624.00,26, 54339
523, 1916352.00, 8606692.00, 8600758.00,26, 54443
524, 1916317.00, 8606463.00, 8600563.00,26, 54548
525, 1916343.00, 8606294.00, 8600566.00,26, 54652
526, 1916353.00, 8606065.00, 8600666.00,26, 54757
527, 1916352.00, 8605802.00, 8600636.00,26, 54861
528, 1916338.00, 8605576.00, 8600586.00,26, 54966
529, 1916337.00, 8605197.00, 8600500.00,26, 55070
530, 1916302.00, 8604990.00, 8600439.00,26, 55175
531, 1916334.00, 8604743.00, 8600772.00,26, 55279
532, 1916335.00, 8604607.00, 8600588.00,26, 55384
533, 1916281.00, 8604449.00, 8600439.00,26, 55488
534, 1916245.00, 8604403.00, 8600502.00,26, 55593
535, 1916275.00, 8604332.00, 8600743.00,26, 55697
536, 1916347.00, 8604144.00, 8600770.00,26, 55802
537, 1916431.00, 8603560.00, 8600646.00,26, 55906
538, 1916431.00, 8603277.00, 8600738.00,26, 56011
539, 1916436.00, 8602976.00, 8600562.00,26, 56115
540, 1916473.00, 8602651.00, 8600715.00,26, 56220
541, 1916512.00, 8602428.00, 8600843.00,26, 56324
542, 1916530.00, 8602285.00, 8600563.00,26, 56429
543, 1916546.00, 8602162.00, 8600544.00,26, 56533
544, 1916524.00, 8602060.00, 8600669.00,26, 56638
545, 1916541.00, 8601740.00, 8600605.00,26, 56742
546, 1916573.00, 8601521.00, 8600499.00,26, 56847
547, 1916498.00, 8601313.00, 8600505.00,26, 56951
548, 1916455.00, 8601166.00, 8600574.00,26, 57056
549, 1916446.00, 8601014.00, 8600659.00,26, 57160
550, 1916440.00, 8600836.00, 8600761.00,26, 57265
551, 1916451.00, 8600705.00, 8600772.00,26, 57369
552, 1916492.00, 8600681.00, 8600506.00,26, 57474
553, 1916471.00, 8600341.00, 8600439.00,26, 57578
554, 1916492.00, 8600226.00, 8600471.00,26, 57683
555, 1916535.00, 8599947.00, 8600653.00,26, 57787
556, 1916555.00, 8599655.00, 8600824.00,26, 57892
557, 1916610.00, 8599437.00, 8600718.00,26, 57996
558, 1916646.00, 8599164.00, 8600920.00,26, 58101
559, 1916594.00, 8599011.00, 8600667.00,26, 58205
560, 1916579.00, 8598932.00, 8600591.00,26, 58310
561, 1916614.00, 8598787.00, 8600738.00,26, 58414
562, 1916627.00, 8598581.00, 8600838.00,26, 58519
563, 1916646.00, 8598411.00, 8600551.00,26, 58623
564, 1916617.00, 8598237.00, 8600615.00,26, 58728
565, 1916608.00, 8598126.00, 8600620.00,26, 58832
566, 1916644.00, 8597969.00, 8600707.00,26, 58937
567, 1916612.00, 8597794.00, 8600792.00,26, 59041
568, 1916583.00, 8597678.00, 8600717.00,26, 59146
569, 1916614.00, 8597483.00, 8600643.00,26, 59250
570, 1916631.00, 8597332.00, 8600690.00,26, 59355
571, 1916675.00, 8597133.00, 8600892.00,26, 59459
572, 1916719.00, 8596908.00, 8600748.00,26, 59564
573, 1916704.00, 8596694.00, 8600475.00,26, 59668
574, 1916719.00, 8596534.00, 8600625.00,26, 59773
575, 1916727.00, 8596347.00, 8600724.00,26, 59877
576, 1916749.00, 8596175.00, 8601157.00,26, 59982
577, 1916847.00, 8595387.00, 8601750.00,26, 60086
578, 1916916.00, 8595080.00, 8601994.00,26, 60191
579, 1917056.00, 8594507.00, 8602860.00,26, 60295
580, 1917164.00, 8593837.00, 8604703.00,26, 60400
581, 1917259.00, 8593428.00, 8605201.00,26, 60504
582, 1917336.00, 8592573.00, 8605802.00,26, 60609
583, 1917380.00, 8592211.00, 8605421.00,26, 60713
584, 1917372.00, 8591725.00, 8605311.00,26, 60818
585, 1917673.00, 8589699.00, 8606016.00,26, 60922
586, 1917986.00, 8588466.00, 8608993.00,26, 61027
587, 1918695.00, 8585256.00, 8616196.00,26, 61131
588, 1920659.00, 8564503.00, 8630288.00,26, 61236
589, 1914825.00, 8441311.00, 8656619.00,26, 61340
590, 1905379.00, 8358320.00, 8647961.00,26, 61445
591, 1906207.00, 8359074.00, 8644778.00,26, 61549
592, 1907220.00, 8360934.00, 8644545.00,26, 61654
593, 1907776.00, 8362622.00, 8644679.00,26, 61758
594, 1908157.00, 8363113.00, 8644232.00,26, 61863
595, 1908554.00, 8363495.00, 8644394.00,26, 61967
596, 1908923.00, 8363564.00, 8644533.00,26, 62072
597, 1909249.00, 8363711.00, 8644528.00,26, 62176
598, 1909567.00, 8363782.00, 8644640.00,26, 62281
599, 1909766.00, 8363920.00, 8644631.00,26, 62385
600, 1909929.00, 8364199.00, 8644517.00,26, 62490
601, 1910036.00, 8364307.00, 8644451.00,26, 62594
602, 1910135.00, 8364509.00, 8644178.00,26, 62699
603, 1910267.00, 8364664.00, 8644173.00,26, 62803
604, 1910378.00, 8364857.00, 8644059.00,26, 62908
605, 1910612.00, 8364659.00, 8644499.00,26, 63012
606, 1910740.00, 8364544.00, 8644454.00,26, 63116
607, 1910910.00, 8364437.00, 8644377.00,26, 63221
608, 1911099.00, 8364114.00, 8644287.00,26, 63325
609, 1911260.00, 8363217.00, 8644471.00,26, 63430
610, 1911375.00, 8362874.00, 8644595.00,26, 63534
611, 1911573.00, 8362436.00, 8644402.00,26, 63639
612, 1911688.00, 8362080.00, 8644408.00,26, 63743
613, 1911738.00, 8362015.00, 8644305.00,26, 63848
614, 1911841.00, 8361929.00, 8644331.00,26, 63952
615, 1911935.00, 8361747.00, 8644433.00,26, 64057
616, 1911964.00, 8361590.00, 8644640.00,26, 64161
617, 1912010.00, 8361432.00, 8644634.00,26, 64266
618, 1912156.00, 8361226.00, 8644574.00,26, 64370
619, 1912246.00, 8361192.00, 8644436.00,26, 64475
620, 1912290.00, 8361206.00, 8644618.00,26, 64579
621, 1912364.00, 8361088.00, 8644683.00,26, 64684
622, 1912370.00, 8361057.00, 8644368.00,26, 64788
623, 1912417.00, 8361015.00, 8644255.00,26, 64893
624, 1912497.00, 8360747.00, 8644451.00,26, 64997
625, 1912621.00, 8360484.00, 8644507.00,26, 65102
626, 1912723.00, 8360082.00, 8644377.00,26, 65206
627, 1912852.00, 8359586.00, 8644431.00,26, 65311
628, 1912986.00, 8359158.00, 8644426.00,26, 65415
629, 1913094.00, 8358722.00, 8644232.00,26, 65520
630, 1913135.00, 8358424.00, 8644074.00,26, 65624
631, 1913189.00, 8358221.00, 8644429.00,26, 65729
632, 1913273.00, 8357944.00, 8644479.00,26, 65833
633, 1913362.00, 8357863.00, 8644390.00,26, 65938
634, 1913389.00, 8357839.00, 8644509.00,26, 66042
635, 1913392.00, 8357810.00, 8644377.00,26, 66147
636, 1913415.00, 8357666.00, 8644215.00,26, 66251
637, 1913451.00, 8357553.00, 8644351.00,26, 66356
638, 1913440.00, 8357508.00, 8644357.00,26, 66460
639, 1913447.00, 8357439.00, 8644514.00,26, 66565
640, 1913466.00, 8357351.00, 8644531.00,26, 66669
641, 1913528.00, 8357349.00, 8644405.00,26, 66774
642, 1913544.00, 8357370.00, 8644602.00,26, 66878
643, 1913555.00, 8357205.00, 8644317.00,26, 66983
644, 1913629.00, 8356967.00, 8644529.00,26, 67087
645, 1913717.00, 8356732.00, 8644367.00,26, 67192
646, 1913878.00, 8356408.00, 8644286.00,26, 67296
647, 1913942.00, 8356052.00, 8644462.00,26, 67401
648, 1913991.00, 8355684.00, 8644321.00,26, 67505
649, 1914021.00, 8355549.00, 8644351.00,26, 67609
650, 1914070.00, 8355469.00, 8644271.00,26, 67714
651, 1914078.00, 8355508.00, 8644269.00,26, 67818
652, 1914101.00, 8355438.00, 8644260.00,26, 67923
653, 1914096.00, 8355336.00, 8644381.00,26, 68027
654, 1914101.00, 8355351.00, 8644428.00,26, 68132
655, 1914103.00, 8355359.00, 8644395.00,26, 68236
656, 1914119.00, 8355154.00, 8644391.00,26, 68341
657, 1914168.00, 8355138.00, 8644371.00,26, 68445
658, 1914144.00, 8355100.00, 8644318.00,26, 68550
659, 1914193.00, 8355030.00, 8644232.00,26, 68654
660, 1914296.00, 8354923.00, 8644206.00,26, 68759
661, 1914335.00, 8354798.00, 8644257.00,26, 68863
662, 1914358.00, 8354664.00, 8644408.00,26, 68968
663, 1914474.00, 8354426.00, 8644592.00,26, 69072
664, 1914532.00, 8354063.00, 8644444.00,26, 69177
665, 1914581.00, 8353845.00, 8644499.00,26, 69281
666, 1914619.00, 8353675.00, 8644416.00,26, 69386
667, 1914658.00, 8353540.00, 8644538.00,26, 69490
668, 1914685.00, 8353459.00, 8644369.00,26, 69595
669, 1914739.00, 8353455.00, 8644124.00,26, 69699
670, 1914703.00, 8353357.00, 8644144.00,26, 69804
671, 1914617.00, 8353326.00, 8644388.00,26, 69908
672, 1914651.00, 8353212.00, 8644347.00,26, 70013
673, 1914717.00, 8353179.00, 8644288.00,26, 70117
674, 1914691.00, 8353202.00, 8644328.00,26, 70222
675, 1914660.00, 8353270.00, 8644361.00,26, 70326
676, 1914728.00, 8353243.00, 8644443.00,26, 70431
677, 1914811.00, 8353164.00, 8644423.00,26, 70535
678, 1914860.00, 8353104.00, 8644429.00,26, 70640
679, 1914835.00, 8352999.00, 8644439.00,26, 70744
680, 1914819.00, 8352517.00, 8644368.00,26, 70849
681, 1914874.00, 8352305.00, 8644435.00,26, 70953
682, 1914940.00, 8352141.00, 8644349.00,26, 71058
683, 1915019.00, 8351966.00, 8644172.00,26, 71162
684, 1915024.00, 8351833.00, 8644461.00,26, 71267
685, 1915051.00, 8351777.00, 8644369.00,26, 71371
686, 1915092.00, 8351724.00, 8644404.00,26, 71476
687, 1915057.00, 8351659.00, 8644405.00,26, 71580
688, 1915058.00, 8351596.00, 8644447.00,26, 71685
689, 1915082.00, 8351572.00, 8644446.00,26, 71789
690, 1915070.00, 8351571.00, 8644486.00,26, 71894
691, 1915135.00, 8351507.00, 8644433.00,26, 71998
692, 1915149.00, 8351492.00, 8644347.00,26, 72103
693, 1915130.00, 8351494.00, 8644332.00,26, 72207
694, 1915099.00, 8351484.00, 8644488.00,26, 72312
695, 1915103.00, 8351473.00, 8644496.00,26, 72416
696, 1915166.00, 8351343.00, 8644654.00,26, 72521
697, 1915197.00, 8351217.00, 8644614.00,26, 72625
698, 1915244.00, 8351089.00, 8644472.00,26, 72730
699, 1915280.00, 8350829.00, 8644573.00,26, 72834
700, 1915296.00, 8350594.00, 8644511.00,26, 72939
701, 1915369.00, 8350443.00, 8644412.00,26, 73043
702, 1915448.00, 8350371.00, 8644181.00,26, 73148
703, 1915433.00, 8350284.00, 8644551.00,26, 73252
704, 1915427.00, 8350180.00, 8644685.00,26, 73357
705, 1915443.00, 8350126.00, 8644408.00,26, 73461
706, 1915455.00, 8350095.00, 8644396.00,26, 73566
707, 1915491.00, 8350092.00, 8644258.00,26, 73670
708, 1915489.00, 8350090.00, 8644109.00,26, 73775
709, 1915408.00, 8350009.00, 8644372.00,26, 73879
710, 1915415.00, 8349957.00, 8644496.00,26, 73984
711, 1915422.00, 8350000.00, 8644271.00,26, 74088
712, 1915410.00, 8350134.00, 8644331.00,26, 74193
713, 1915433.00, 8350122.00, 8644357.00,26, 74297
714, 1915415.00, 8349999.00, 8644482.00,26, 74402
715, 1915428.00, 8349887.00, 8644306.00,26, 74506
716, 1915494.00, 8349728.00, 8644319.00,26, 74611
717, 1915589.00, 8349489.00, 8644237.00,26, 74715
718, 1915601.00, 8349261.00, 8644392.00,26, 74820
719, 1915646.00, 8349172.00, 8644750.00,26, 74924
720, 1915684.00, 8349150.00, 8644474.00,26, 75029
721, 1915732.00, 8349029.00, 8644399.00,26, 75133
722, 1915769.00, 8348942.00, 8644475.00,26, 75238
723, 1915729.00, 8348940.00, 8644468.00,26, 75342
724, 1915788.00, 8348870.00, 8644454.00,26, 75447
725, 1915769.00, 8348812.00, 8644317.00,26, 75551
726, 1915681.00, 8348874.00, 8644249.00,26, 75656
727, 1915665.00, 8348876.00, 8644701.00,26, 75760
728, 1915716.00, 8348837.00, 8644532.00,26, 75865
729, 1915812.00, 8348875.00, 8644572.00,26, 75969
730, 1915856.00, 8348855.00, 8644719.00,26, 76074
731, 1915836.00, 8348854.00, 8644502.00,26, 76178
732, 1915807.00, 8348786.00, 8644540.00,26, 76283
733, 1915793.00, 8348657.00, 8644634.00,26, 76387
734, 1915843.00, 8348483.00, 8644557.00,26, 76492
735, 1915866.00, 8348339.00, 8644510.00,26, 76596
736, 1915940.00, 8348100.00, 8644276.00,26, 76701
737, 1916027.00, 8347945.00, 8644160.00,26, 76805
738, 1916053.00, 8347847.00, 8644448.00,26, 76910
739, 1916061.00, 8347762.00, 8644487.00,26, 77014
740, 1916049.00, 8347704.00, 8644330.00,26, 77119
741, 1916053.00, 8347653.00, 8644489.00,26, 77223
742, 1916086.00, 8347604.00, 8644303.00,26, 77328
743, 1916150.00, 8347582.00, 8644251.00,26, 77432
744, 1916131.00, 8347516.00, 8644177.00,26, 77537
745, 1916069.00, 8347543.00, 8644061.00,26, 77641
746, 1916064.00, 8347538.00, 8644192.00,26, 77746
747, 1916016.00, 8347534.00, 8644374.00,26, 77850
748, 1916040.00, 8347576.00, 8644352.00,26, 77955
749, 1916124.00, 8347585.00, 8644294.00,26, 78059
750, 1916087.00, 8347538.00, 8644337.00,26, 78164
751, 1916069.00, 8347389.00, 8644529.00,26, 78268
752, 1916140.00, 8347108.00, 8644498.00,26, 78373
753, 1916200.00, 8346980.00, 8644420.00,26, 78477
754, 1916213.00, 8346856.00, 8644305.00,26, 78582
755, 1916256.00, 8346744.00, 8644252.00,26, 78686
756, 1916205.00, 8346734.00, 8644236.00,26, 78791
757, 1916201.00, 8346709.00, 8644460.00,26, 78896
758, 1916242.00, 8346624.00, 8644414.00,26, 79000
759, 1916279.00, 8346583.00, 8644437.00,26, 79105
760, 1916299.00, 8346558.00, 8644392.00,26, 79209
761, 1916314.00, 8346527.00, 8644259.00,26, 79314
762, 1916295.00, 8346534.00, 8644217.00,26, 79418
763, 1916284.00, 8346492.00, 8644198.00,26, 79523
764, 1916261.00, 8346505.00, 8644493.00,26, 79627
765, 1916298.00, 8346552.00, 8644444.00,26, 79732
766, 1916288.00, 8346597.00, 8644372.00,26, 79836
767, 1916265.00, 8346556.00, 8644268.00,26, 79941
768, 1916315.00, 8346451.00, 8644349.00,26, 80045
769, 1916371.00, 8346317.00, 8644543.00,26, 80150
770, 1916399.00, 8346179.00, 8644353.00,26, 80254
771, 1916484.00, 8346102.00, 8644294.00,26, 80359
772, 1916511.00, 8345994.00, 8644416.00,26, 80463
773, 1916477.00, 8345938.00, 8644478.00,26, 80568
774, 1916521.00, 8345940.00, 8644320.00,26, 80672
775, 1916532.00, 8345897.00, 8644464.00,26, 80777
776, 1916479.00, 8345779.00, 8644385.00,26, 80881
777, 1916485.00, 8345745.00, 8644335.00,26, 80986
778, 1916534.00, 8345765.00, 8644535.00,26, 81090
779, 1916584.00, 8345738.00, 8644363.00,26, 81195
780, 1916490.00, 8345736.00, 8644224.00,26, 81299
781, 1916451.00, 8345717.00, 8644077.00,26, 81404
782, 1916451.00, 8345766.00, 8644252.00,26, 81508
783, 1916375.00, 8345772.00, 8644378.00,26, 81613
784, 1916360.00, 8345791.00, 8644062.00,26, 81717
785, 1916363.00, 8345773.00, 8644188.00,26, 81822
786, 1916410.00, 8345761.00, 8644154.00,26, 81926
787, 1916480.00, 8345642.00, 8644206.00,26, 82031
788, 1916517.00, 8345573.00, 8644379.00,26, 82135
789, 1916543.00, 8345471.00, 8644465.00,26, 82240
790, 1916586.00, 8345337.00, 8644562.00,26, 82344
791, 1916548.00, 8345265.00, 8644268.00,26, 82449
792, 1916554.00, 8345206.00, 8644137.00,26, 82553
793, 1916544.00, 8345124.00, 8644249.00,26, 82658
794, 1916563.00, 8345100.00, 8644194.00,26, 82762
795, 1916623.00, 8345058.00, 8644341.00,26, 82867
796, 1916614.00, 8345059.00, 8644366.00,26, 82971
797, 1916625.00, 8345015.00, 8644351.00,26, 83076
798, 1916569.00, 8345015.00, 8644568.00,26, 83180
799, 1916605.00, 8345035.00, 8644375.00,26, 83285
800, 1916650.00, 8344893.00, 8644298.00,26, 83389
801, 1916623.00, 8344871.00, 8644073.00,26, 83494
802, 1916679.00, 8344780.00, 8643855.00,26, 83598
803, 1916710.00, 8344627.00, 8644019.00,26, 83703
804, 1916706.00, 8344581.00, 8644118.00,26, 83807
805, 1916724.00, 8344506.00, 8644002.00,26, 83912
806, 1916754.00, 8344488.00, 8643864.00,26, 84016
807, 1916854.00, 8344256.00, 8644250.00,26, 84121
808, 1916818.00, 8344167.00, 8644438.00,26, 84225
809, 1916847.00, 8344074.00, 8644496.00,26, 84330
810, 1916915.00, 8343882.00, 8644659.00,26, 84434
811, 1916936.00, 8343819.00, 8644380.00,26, 84539
812, 1916904.00, 8343823.00, 8644130.00,26, 84643
813, 1916921.00, 8343752.00, 8644277.00,26, 84748
814, 1916996.00, 8343552.00, 8644402.00,26, 84852
815, 1916970.00, 8343524.00, 8644370.00,26, 84957
816, 1916933.00, 8343530.00, 8644419.00,26, 85061
817, 1916975.00, 8343326.00, 8644426.00,26, 85166
818, 1916998.00, 8343180.00, 8644395.00,26, 85270
819, 1916963.00, 8343203.00, 8644663.00,26, 85375
820, 1916978.00, 8343185.00, 8644750.00,26, 85480
821, 1917062.00, 8343036.00, 8644586.00,26, 85584
822, 1917070.00, 8343023.00, 8644384.00,26, 85689
823, 1917142.00, 8342778.00, 8645164.00,26, 85793
824, 1917121.00, 8342575.00, 8645440.00,26, 85898
825, 1917134.00, 8342466.00, 8644924.00,26, 86002
826, 1917173.00, 8342429.00, 8644596.00,26, 86107
827, 1917016.00, 8342507.00, 8643720.00,26, 86211
828, 1916190.00, 8345188.00, 8633977.00,26, 86316
829, 1915041.00, 8349739.00, 8621560.00,26, 86420
830, 1914085.00, 8353908.00, 8611460.00,26, 86525
831, 1913755.00, 8356922.00, 8605268.00,26, 86629
832, 1914368.00, 8353426.00, 8607688.00,26, 86734
833, 1915080.00, 8351218.00, 8623885.00,26, 86838
834, 1915775.00, 8348741.00, 8629902.00,26, 86943
835, 1916509.00, 8345780.00, 8637396.00,26, 87047
836, 1917188.00, 8342495.00, 8644777.00,26, 87152
837, 1917252.00, 8341875.00, 8644857.00,26, 87256
838, 1917387.00, 8341665.00, 8645063.00,26, 87361
839, 1917520.00, 8340965.00, 8646850.00,26, 87465
840, 1917618.00, 8340476.00, 8647274.00,26, 87570
841, 1917583.00, 8340640.00, 8646135.00,26, 87674
842, 1917381.00, 8340988.00, 8645069.00,26, 87779
843, 1917057.00, 8342053.00, 8641598.00,26, 87883
844, 1916676.00, 8344042.00, 8635704.00,26, 87988
845, 1916449.00, 8344659.00, 8633527.00,26, 88092
846, 1915460.00, 8347214.00, 8627614.00,26, 88197
847, 1914426.00, 8352378.00, 8605411.00,26, 88301
848, 1913909.00, 8356830.00, 8602908.00,26, 88406
849, 1913968.00, 8356554.00, 8603740.00,26, 88510
850, 1913818.00, 8357262.00, 8602788.00,26, 88615
851, 1913663.00, 8357920.00, 8600837.00,26, 88719
852, 1913637.00, 8357909.00, 8600650.00,26, 88824
853, 1913577.00, 8357925.00, 8600589.00,26, 88928
854, 1913573.00, 8358023.00, 8600436.00,26, 89033
855, 1913591.00, 8358290.00, 8600661.00,26, 89137
856, 1913535.00, 8358622.00, 8600650.00,26, 89242
857, 1913504.00, 8358813.00, 8600788.00,26, 89346
858, 1913485.00, 8359173.00, 8600717.00,26, 89451
859, 1913387.00, 8359333.00, 8600683.00,26, 89556
860, 1913387.00, 8359340.00, 8600787.00,26, 89660
861, 1913408.00, 8359347.00, 8600745.00,26, 89765
862, 1913418.00, 8359325.00, 8600718.00,26, 89869
863, 1913484.00, 8359372.00, 8600690.00,26, 89974
864, 1913505.00, 8359448.00, 8600697.00,26, 90078
865, 1913478.00, 8359396.00, 8600751.00,26, 90183
866, 1913459.00, 8359434.00, 8600656.00,26, 90287
867, 1913460.00, 8359543.00, 8600765.00,26, 90392
868, 1913451.00, 8359616.00, 8600682.00,26, 90496
869, 1913424.00, 8359693.00, 8600768.00,26, 90601
870, 1913369.00, 8359763.00, 8600688.00,26, 90705
871, 1913326.00, 8359830.00, 8600590.00,26, 90810
872, 1913375.00, 8359916.00, 8600722.00,26, 90914
873, 1913435.00, 8359901.00, 8600556.00,26, 91019
874, 1913330.00, 8359936.00, 8600492.00,26, 91123
875, 1913300.00, 8360005.00, 8600403.00,26, 91228
876, 1913321.00, 8360092.00, 8600517.00,26, 91332
877, 1913365.00, 8360070.00, 8600488.00,26, 91437
878, 1913403.00, 8360127.00, 8600572.00,26, 91541
879, 1913360.00, 8360167.00, 8600583.00,26, 91646
880, 1913355.00, 8360244.00, 8600563.00,26, 91750
881, 1913369.00, 8360317.00, 8600563.00,26, 91855
882, 1913390.00, 8360316.00, 8600601.00,26, 91959
883, 1913400.00, 8360418.00, 8600502.00,26, 92064
884, 1913376.00, 8360443.00, 8600443.00,26, 92168
885, 1913395.00, 8360429.00, 8600551.00,26, 92273
886, 1913386.00, 8360506.00, 8600642.00,26, 92377
887, 1913402.00, 8360582.00, 8600477.00,26, 92482
888, 1913393.00, 8360649.00, 8600520.00,26, 92586
889, 1913408.00, 8360579.00, 8600604.00,26, 92691
890, 1913416.00, 8360578.00, 8600757.00,26, 92795
891, 1913386.00, 8360625.00, 8600681.00,26, 92900
892, 1913408.00, 8360713.00, 8600544.00,26, 93004
893, 1913467.00, 8360741.00, 8600721.00,26, 93109
894, 1913420.00, 8360745.00, 8600924.00,26, 93213
895, 1913374.00, 8360822.00, 8600763.00,26, 93318
896, 1913378.00, 8360860.00, 8600392.00,26, 93422
897, 1913379.00, 8360918.00, 8600402.00,26, 93527
898, 1913332.00, 8361006.00, 8600573.00,26, 93631
899, 1913353.00, 8361023.00, 8600831.00,26, 93736
900, 1913385.00, 8361137.00, 8600874.00,26, 93840
901, 1913375.00, 8361185.00, 8600609.00,26, 93945
902, 1913339.00, 8361114.00, 8600532.00,26, 94049
903, 1913388.00, 8361095.00, 8600596.00,26, 94154
904, 1913377.00, 8361165.00, 8600611.00,26, 94258
905, 1913364.00, 8361198.00, 8600584.00,26, 94363
906, 1913340.00, 8361263.00, 8600631.00,26, 94467
907, 1913338.00, 8361278.00, 8600451.00,26, 94572
908, 1913364.00, 8361338.00, 8600608.00,26, 94676
909, 1913421.00, 8361374.00, 8600695.00,26, 94781
910, 1913409.00, 8361397.00, 8600862.00,26, 94885
911, 1913353.00, 8361407.00, 8600642.00,26, 94990
912, 1913348.00, 8361499.00, 8600560.00,26, 95094
913, 1913389.00, 8361528.00, 8600460.00,26, 95199
914, 1913373.00, 8361603.00, 8600760.00,26, 95303
915, 1913342.00, 8361631.00, 8600901.00,26, 95408
916, 1913368.00, 8361691.00, 8600799.00,26, 95512
917, 1913427.00, 8361719.00, 8600724.00,26, 95617
918, 1913416.00, 8361709.00, 8600741.00,26, 95721
919, 1913335.00, 8361802.00, 8600714.00,26, 95826
920, 1913338.00, 8361793.00, 8600534.00,26, 95930
921, 1913318.00, 8361828.00, 8600481.00,26, 96035
922, 1913325.00, 8361865.00, 8600446.00,26, 96139
923, 1913326.00, 8361877.00, 8600713.00,26, 96244
924, 1913359.00, 8361803.00, 8600822.00,26, 96348
925, 1913375.00, 8361832.00, 8600897.00,26, 96453
926, 1913368.00, 8361918.00, 8600927.00,26, 96557
927, 1913359.00, 8361926.00, 8600626.00,26, 96662
928, 1913331.00, 8361997.00, 8600616.00,26, 96766
929, 1913305.00, 8362006.00, 8600475.00,26, 96871
930, 1913358.00, 8362028.00, 8600501.00,26, 96975
931, 1913392.00, 8362097.00, 8600778.00,26, 97080
932, 1913354.00, 8362155.00, 8600655.00,26, 97184
933, 1913345.00, 8362225.00, 8600697.00,26, 97289
934, 1913354.00, 8362293.00, 8600654.00,26, 97393
935, 1913348.00, 8362355.00, 8600438.00,26, 97498
936, 1913379.00, 8362378.00, 8600688.00,26, 97602
937, 1913390.00, 8362398.00, 8600846.00,26, 97707
938, 1913396.00, 8362415.00, 8600602.00,26, 97811
939, 1913375.00, 8362498.00, 8600646.00,26, 97916
940, 1913314.00, 8362587.00, 8600240.00,26, 98020
941, 1913306.00, 8362609.00, 8600014.00,26, 98125
942, 1913326.00, 8362608.00, 8599851.00,26, 98229
943, 1913202.00, 8362779.00, 8599499.00,26, 98334
944, 1912964.00, 8364815.00, 8596959.00,26, 98438
945, 1912740.00, 8365463.00, 8593415.00,26, 98543
946, 1912363.00, 8366929.00, 8589744.00,26, 98647
947, 1912070.00, 8368283.00, 8587124.00,26, 98752
948, 1911715.00, 8369346.00, 8584626.00,26, 98857
949, 1911244.00, 8371714.00, 8580543.00,26, 98961
950, 1911082.00, 8372308.00, 8580906.00,26, 99066
951, 1911047.00, 8373137.00, 8579874.00,26, 99170
952, 1911030.00, 8372922.00, 8580707.00,26, 99275
953, 1910932.00, 8373484.00, 8579570.00,26, 99379
954, 1910840.00, 8373618.00, 8579227.00,26, 99484
955, 1910769.00, 8373853.00, 8579292.00,26, 99588
956, 1910778.00, 8373818.00, 8579371.00,26, 99693
957, 1910842.00, 8373912.00, 8579354.00,26, 99797
958, 1910891.00, 8374055.00, 8579330.00,26, 99902
959, 1910809.00, 8374232.00, 8579007.00,26, 100006
960, 1910772.00, 8374443.00, 8579231.00,26, 100111
961, 1910803.00, 8374399.00, 8579488.00,26, 100215
962, 1910796.00, 8374474.00, 8579161.00,26, 100320
963, 1910778.00, 8374495.00, 8579157.00,26, 100424
964, 1910753.00, 8374499.00, 8579214.00,26, 100529
965, 1910838.00, 8374452.00, 8579309.00,26, 100633
966, 1910839.00, 8374463.00, 8579221.00,26, 100738
967, 1910816.00, 8374453.00, 8579117.00,26, 100842
968, 1910780.00, 8374552.00, 8579016.00,26, 100947
969, 1910756.00, 8374605.00, 8579024.00,26, 101051
970, 1910758.00, 8374646.00, 8579233.00,26, 101156
971, 1910766.00, 8374687.00, 8579226.00,26, 101260
972, 1910743.00, 8374798.00, 8579077.00,26, 101365
973, 1910672.00, 8374868.00, 8579275.00,26, 101469
974, 1910715.00, 8374836.00, 8579192.00,26, 101574
975, 1910675.00, 8374988.00, 8579072.00,26, 101678
976, 1910690.00, 8375038.00, 8579034.00,26, 101783
977, 1910701.00, 8375084.00, 8579319.00,26, 101887
978, 1910704.00, 8375059.00, 8579346.00,26, 101992
979, 1910694.00, 8375102.00, 8578984.00,26, 102096
980, 1910684.00, 8375150.00, 8579096.00,26, 102201
981, 1910704.00, 8375194.00, 8579121.00,26, 102305
982, 1910767.00, 8375135.00, 8579261.00,26, 102410
983, 1910749.00, 8375165.00, 8579270.00,26, 102514
984, 1910658.00, 8375168.00, 8579069.00,26, 102619
985, 1910679.00, 8375170.00, 8579061.00,26, 102723
986, 1910685.00, 8375189.00, 8579264.00,26, 102828
987, 1910642.00, 8375267.00, 8579281.00,26, 102932
988, 1910664.00, 8375351.00, 8579299.00,26, 103037
989, 1910651.00, 8375432.00, 8579082.00,26, 103141
990, 1910616.00, 8375479.00, 8579071.00,26, 103246
991, 1910673.00, 8375446.00, 8578996.00,26, 103350
992, 1910658.00, 8375552.00, 8579041.00,26, 103455
993, 1910642.00, 8375597.00, 8578937.00,26, 103559
994, 1910663.00, 8375598.00, 8578935.00,26, 103664
995, 1910602.00, 8375626.00, 8578954.00,26, 103768
996, 1910654.00, 8375699.00, 8578970.00,26, 103873
997, 1910702.00, 8375669.00, 8579076.00,26, 103977
998, 1910746.00, 8375664.00, 8579235.00,26, 104082
999, 1910754.00, 8375709.00, 8579298.00,26, 104186
1000, 1910699.00, 8375695.00, 8579081.00,26, 104291
1001, 1910698.00, 8375696.00, 8579158.00,26, 104396
1002, 1910633.00, 8375752.00, 8579381.00,26, 104500
1003, 1910618.00, 8375791.00, 8579137.00,26, 104605
1004, 1910658.00, 8375876.00, 8578962.00,26, 104709
1005, 1910678.00, 8375918.00, 8579208.00,26, 104814
1006, 1910725.00, 8375905.00, 8579088.00,26, 104918
1007, 1910737.00, 8375899.00, 8579155.00,26, 105023
1008, 1910657.00, 8375984.00, 8579296.00,26, 105127
1009, 1910636.00, 8376041.00, 8579248.00,26, 105232
1010, 1910653.00, 8376088.00, 8579072.00,26, 105336
1011, 1910642.00, 8376107.00, 8579141.00,26, 105441
1012, 1910619.00, 8376116.00, 8579181.00,26, 105545
1013, 1910623.00, 8376156.00, 8579086.00,26, 105650
1014, 1910658.00, 8376166.00, 8579137.00,26, 105754
1015, 1910656.00, 8376146.00, 8579364.00,26, 105859
1016, 1910622.00, 8376202.00, 8579382.00,26, 105963
1017, 1910644.00, 8376244.00, 8579280.00,26, 106068
1018, 1910667.00, 8376265.00, 8579202.00,26, 106172
1019, 1910683.00, 8376290.00, 8579217.00,26, 106277
1020, 1910658.00, 8376293.00, 8579311.00,26, 106381
1021, 1910640.00, 8376324.00, 8579286.00,26, 106486
1022, 1910640.00, 8376349.00, 8579058.00,26, 106590
1023, 1910682.00, 8376368.00, 8579125.00,26, 106695
1024, 1910640.00, 8376519.00, 8579174.00,26, 106799
1025, 1910655.00, 8376539.00, 8579194.00,26, 106904
1026, 1910731.00, 8376598.00, 8579131.00,26, 107008
1027, 1910695.00, 8376670.00, 8579208.00,26, 107113
1028, 1910684.00, 8376662.00, 8579223.00,26, 107217
1029, 1910647.00, 8376637.00, 8579247.00,26, 107322
1030, 1910652.00, 8376642.00, 8579297.00,26, 107426
1031, 1910674.00, 8376682.00, 8579363.00,26, 107531
1032, 1910699.00, 8376592.00, 8579100.00,26, 107635
1033, 1910718.00, 8376579.00, 8579000.00,26, 107740
1034, 1910740.00, 8376672.00, 8579164.00,26, 107844
1035, 1910701.00, 8376742.00, 8579153.00,26, 107949
1036, 1910660.00, 8376749.00, 8578988.00,26, 108053
1037, 1910630.00, 8376777.00, 8579253.00,26, 108158
1038, 1910649.00, 8376842.00, 8579346.00,26, 108262
1039, 1910671.00, 8376806.00, 8579368.00,26, 108367
1040, 1910632.00, 8376956.00, 8579289.00,26, 108472
1041, 1910666.00, 8376998.00, 8579053.00,26, 108576
1042, 1910634.00, 8376878.00, 8579142.00,26, 108681
1043, 1910626.00, 8377021.00, 8579493.00,26, 108785
1044, 1910625.00, 8377226.00, 8578641.00,26, 108890
1045, 1910648.00, 8377238.00, 8578989.00,26, 108994
1046, 1910705.00, 8377020.00, 8579503.00,26, 109099
1047, 1910696.00, 8376912.00, 8579406.00,26, 109203
1048, 1910629.00, 8377062.00, 8579278.00,26, 109308
1049, 1910457.00, 8377731.00, 8578756.00,26, 109412
1050, 1909795.00, 8380684.00, 8575612.00,26, 109517
1051, 1909064.00, 8383943.00, 8565920.00,26, 109621
1052, 1908826.00, 8384556.00, 8565435.00,26, 109726
1053, 1908067.00, 8386226.00, 8560347.00,26, 109830
1054, 1906927.00, 8391080.00, 8553317.00,26, 109935
1055, 1905881.00, 8394689.00, 8549762.00,26, 110039
1056, 1903616.00, 8410043.00, 8543922.00,26, 110144
1057, 1901955.00, 8415984.00, 8540127.00,26, 110248
1058, 1900259.00, 8423318.00, 8534286.00,26, 110353
1059, 1898826.00, 8429471.00, 8534206.00,26, 110457
1060, 1898255.00, 8432343.00, 8536634.00,26, 110562
1061, 1897896.00, 8433599.00, 8537772.00,26, 110666
1062, 1897354.00, 8435649.00, 8536518.00,26, 110771
1063, 1896844.00, 8438024.00, 8535530.00,26, 110875
1064, 1896366.00, 8441785.00, 8535424.00,26, 110980
1065, 1895891.00, 8443465.00, 8535583.00,26, 111084
1066, 1895438.00, 8445256.00, 8535286.00,26, 111189
1067, 1894986.00, 8447019.00, 8535177.00,26, 111293
1068, 1894546.00, 8448962.00, 8535063.00,26, 111398
1069, 1894232.00, 8450740.00, 8535035.00,26, 111502
1070, 1894028.00, 8451827.00, 8535133.00,26, 111607
1071, 1893853.00, 8452432.00, 8535291.00,26, 111711
1072, 1893731.00, 8453460.00, 8535325.00,26, 111816
1073, 1893588.00, 8454138.00, 8535412.00,26, 111920
1074, 1893298.00, 8455490.00, 8535308.00,26, 112025
1075, 1892883.00, 8457289.00, 8535304.00,26, 112130
1076, 1892445.00, 8458868.00, 8535274.00,26, 112234
1077, 1892075.00, 8460515.00, 8535333.00,26, 112339
1078, 1891737.00, 8462350.00, 8535238.00,26, 112443
1079, 1891515.00, 8463781.00, 8535206.00,26, 112548
1080, 1891310.00, 8465318.00, 8535092.00,26, 112652
1081, 1891182.00, 8465965.00, 8535230.00,26, 112757
1082, 1891039.00, 8466730.00, 8535407.00,26, 112861
1083, 1890851.00, 8467646.00, 8535570.00,26, 112966
1084, 1890670.00, 8468559.00, 8535415.00,26, 113070
1085, 1890332.00, 8469694.00, 8535250.00,26, 113175
1086, 1890019.00, 8470922.00, 8535238.00,26, 113279
1087, 1889880.00, 8471941.00, 8535336.00,26, 113384
1088, 1889881.00, 8472944.00, 8535256.00,26, 113488
1089, 1889858.00, 8473102.00, 8535402.00,26, 113593
1090, 1889776.00, 8473409.00, 8535554.00,26, 113697
1091, 1889551.00, 8473919.00, 8535066.00,26, 113802
1092, 1889331.00, 8474820.00, 8535169.00,26, 113906
1093, 1889131.00, 8476003.00, 8535111.00,26, 114011
1094, 1888792.00, 8477322.00, 8535289.00,26, 114115
1095, 1888470.00, 8478720.00, 8535490.00,26, 114220
1096, 1888274.00, 8480876.00, 8535231.00,26, 114324
1097, 1888208.00, 8481260.00, 8535051.00,26, 114429
1098, 1888141.00, 8481569.00, 8535256.00,26, 114533
1099, 1888103.00, 8481784.00, 8535061.00,26, 114638
1100, 1888016.00, 8482317.00, 8535247.00,26, 114742
1101, 1887835.00, 8482990.00, 8535502.00,26, 114847
1102, 1887640.00, 8483756.00, 8535605.00,26, 114951
1103, 1887431.00, 8484623.00, 8535613.00,26, 115056
1104, 1887302.00, 8486160.00, 8535539.00,26, 115160
1105, 1887194.00, 8486569.00, 8535309.00,26, 115265
1106, 1887156.00, 8486833.00, 8535182.00,26, 115369
1107, 1887118.00, 8487023.00, 8535385.00,26, 115474
1108, 1887088.00, 8487198.00, 8535432.00,26, 115578
1109, 1887048.00, 8487585.00, 8535192.00,26, 115683
1110, 1886898.00, 8488265.00, 8535260.00,26, 115787
1111, 1886635.00, 8489142.00, 8535360.00,26, 115892
1112, 1886403.00, 8491276.00, 8535374.00,26, 115996
1113, 1886217.00, 8492079.00, 8535243.00,26, 116101
1114, 1886117.00, 8492554.00, 8535083.00,26, 116205
1115, 1886102.00, 8492762.00, 8535215.00,26, 116310
1116, 1886050.00, 8492952.00, 8535276.00,26, 116414
1117, 1885988.00, 8493203.00, 8535281.00,26, 116519
1118, 1885923.00, 8493614.00, 8535354.00,26, 116623
1119, 1885809.00, 8494218.00, 8535175.00,26, 116728
1120, 1885635.00, 8495441.00, 8535110.00,26, 116832
1121, 1885498.00, 8496045.00, 8535276.00,26, 116937
1122, 1885453.00, 8496511.00, 8535282.00,26, 117041
1123, 1885372.00, 8496702.00, 8535147.00,26, 117146
1124, 1885362.00, 8496890.00, 8535274.00,26, 117250
1125, 1885414.00, 8496995.00, 8535305.00,26, 117355
1126, 1885313.00, 8497186.00, 8535452.00,26, 117459
1127, 1885169.00, 8497581.00, 8535437.00,26, 117564
1128, 1885051.00, 8498839.00, 8535619.00,26, 117668
1129, 1884931.00, 8499674.00, 8535345.00,26, 117773
1130, 1884731.00, 8500489.00, 8535121.00,26, 117877
1131, 1884626.00, 8501088.00, 8535256.00,26, 117982
1132, 1884572.00, 8501389.00, 8535343.00,26, 118086
1133, 1884590.00, 8501567.00, 8535282.00,26, 118191
1134, 1884566.00, 8501696.00, 8535265.00,26, 118295
1135, 1884515.00, 8501928.00, 8535339.00,26, 118400
1136, 1884406.00, 8502727.00, 8535362.00,26, 118504
1137, 1884257.00, 8503198.00, 8535287.00,26, 118609
1138, 1884220.00, 8503684.00, 8535193.00,26, 118713
1139, 1884193.00, 8504061.00, 8535280.00,26, 118817
1140, 1884112.00, 8504245.00, 8535158.00,26, 118922
1141, 1884158.00, 8504367.00, 8535221.00,26, 119026
1142, 1884151.00, 8504494.00, 8535174.00,26, 119131
1143, 1884134.00, 8504587.00, 8535240.00,26, 119235
1144, 1884114.00, 8505079.00, 8535053.00,26, 119340
1145, 1884039.00, 8505583.00, 8535265.00,26, 119444
1146, 1883904.00, 8506224.00, 8535432.00,26, 119549
1147, 1883718.00, 8506940.00, 8535288.00,26, 119654
1148, 1883613.00, 8507511.00, 8535363.00,26, 119758
1149, 1883574.00, 8507866.00, 8535264.00,26, 119863
1150, 1883587.00, 8508028.00, 8535413.00,26, 119967
1151, 1883531.00, 8508130.00, 8535302.00,26, 120072
1152, 1883481.00, 8508460.00, 8535259.00,26, 120176
1153, 1883427.00, 8508804.00, 8535265.00,26, 120280
1154, 1883381.00, 8509217.00, 8535258.00,26, 120385
1155, 1883304.00, 8509691.00, 8535432.00,26, 120489
1156, 1883281.00, 8510056.00, 8535400.00,26, 120594
1157, 1883249.00, 8510270.00, 8535261.00,26, 120698
1158, 1883209.00, 8510377.00, 8535276.00,26, 120803
1159, 1883160.00, 8510411.00, 8535301.00,26, 120907
1160, 1883137.00, 8510541.00, 8535307.00,26, 121012
1161, 1883124.00, 8510673.00, 8535294.00,26, 121116
1162, 1883071.00, 8510966.00, 8535236.00,26, 121221
1163, 1882991.00, 8511399.00, 8535404.00,26, 121325
1164, 1882887.00, 8511959.00, 8535570.00,26, 121430
1165, 1882848.00, 8512455.00, 8535452.00,26, 121535
1166, 1882777.00, 8512823.00, 8535343.00,26, 121639
1167, 1882691.00, 8513071.00, 8535318.00,26, 121744
1168, 1882690.00, 8513226.00, 8535363.00,26, 121848
1169, 1882708.00, 8513376.00, 8535330.00,26, 121953
1170, 1882686.00, 8513572.00, 8535300.00,26, 122057
1171, 1882624.00, 8513908.00, 8535258.00,26, 122162
1172, 1882500.00, 8514256.00, 8535113.00,26, 122266
1173, 1882444.00, 8514528.00, 8535040.00,26, 122371
1174, 1882434.00, 8514750.00, 8534981.00,26, 122475
1175, 1882426.00, 8514882.00, 8535116.00,26, 122580
1176, 1882421.00, 8514979.00, 8535582.00,26, 122684
1177, 1882444.00, 8515054.00, 8535455.00,26, 122789
1178, 1882412.00, 8515120.00, 8535447.00,26, 122893
1179, 1882367.00, 8515282.00, 8535439.00,26, 122998
1180, 1882305.00, 8515589.00, 8535173.00,26, 123102
1181, 1882209.00, 8515970.00, 8535293.00,26, 123207
1182, 1882095.00, 8516429.00, 8535341.00,26, 123311
1183, 1882021.00, 8516811.00, 8535280.00,26, 123416
1184, 1881998.00, 8517069.00, 8535406.00,26, 123520
1185, 1882033.00, 8517053.00, 8535521.00,26, 123625
1186, 1882042.00, 8517112.00, 8535515.00,26, 123729
1187, 1882045.00, 8517356.00, 8535163.00,26, 123834
1188, 1881739.00, 8518090.00, 8533922.00,26, 123938
1189, 1880820.00, 8520048.00, 8531255.00,26, 124043
1190, 1878765.00, 8526913.00, 8523594.00,26, 124147
1191, 1876687.00, 8536488.00, 8515790.00,26, 124252
1192, 1873183.00, 8566921.00, 8512299.00,26, 124356
1193, 1866588.00, 8605114.00, 8508497.00,26, 124461
1194, 1855321.00, 8683403.00, 8502619.00,26, 124565
1195, 1848969.00, 8764506.00, 8497268.00,26, 124670
1196, 1849730.00, 8788833.00, 8497010.00,26, 124774
1197, 1850100.00, 8792225.00, 8498236.00,26, 124879
1198, 1848920.00, 8799387.00, 8494161.00,26, 124983
1199, 1847793.00, 8812923.00, 8492940.00,26, 125088
1200, 1847657.00, 8834859.00, 8492620.00,26, 125192
1201, 1847673.00, 8840850.00, 8492505.00,26, 125297
1202, 1847739.00, 8845717.00, 8492684.00,26, 125401
1203, 1847879.00, 8850027.00, 8492549.00,26, 125506
1204, 1848114.00, 8853328.00, 8492363.00,26, 125610
1205, 1848294.00, 8855614.00, 8492468.00,26, 125715
1206, 1848410.00, 8857405.00, 8492322.00,26, 125819
1207, 1848573.00, 8858781.00, 8492388.00,26, 125924
1208, 1848658.00, 8861402.00, 8492514.00,26, 126028
1209, 1848658.00, 8862798.00, 8492493.00,26, 126133
1210, 1848636.00, 8864039.00, 8492747.00,26, 126237
1211, 1848694.00, 8865033.00, 8492738.00,26, 126342
1212, 1848733.00, 8866028.00, 8492263.00,26, 126446
1213, 1848696.00, 8867293.00, 8492352.00,26, 126551
1214, 1848585.00, 8868785.00, 8492371.00,26, 126655
1215, 1848533.00, 8870186.00, 8492435.00,26, 126760
1216, 1848519.00, 8872840.00, 8492712.00,26, 126864
1217, 1848383.00, 8874549.00, 8492482.00,26, 126969
1218, 1848234.00, 8876333.00, 8492372.00,26, 127073
1219, 1848213.00, 8877743.00, 8492411.00,26, 127178
1220, 1848318.00, 8878837.00, 8492339.00,26, 127282
1221, 1848388.00, 8879571.00, 8492595.00,26, 127386
1222, 1848365.00, 8880357.00, 8492501.00,26, 127491
1223, 1848327.00, 8881203.00, 8492626.00,26, 127595
1224, 1848318.00, 8882685.00, 8492503.00,26, 127700
1225, 1848312.00, 8883242.00, 8492660.00,26, 127804
1226, 1848419.00, 8883655.00, 8492462.00,26, 127909
1227, 1848485.00, 8884042.00, 8492604.00,26, 128013
1228, 1848496.00, 8884478.00, 8492638.00,26, 128118
1229, 1848535.00, 8884846.00, 8492766.00,26, 128222
1230, 1848550.00, 8885234.00, 8492513.00,26, 128327
1231, 1848540.00, 8885689.00, 8492411.00,26, 128431
1232, 1848519.00, 8887150.00, 8492336.00,26, 128536
1233, 1848508.00, 8887974.00, 8492507.00,26, 128640
1234, 1848458.00, 8888710.00, 8492553.00,26, 128745
1235, 1848433.00, 8889480.00, 8492589.00,26, 128849
1236, 1848415.00, 8890320.00, 8492541.00,26, 128954
1237, 1848305.00, 8891094.00, 8492544.00,26, 129058
1238, 1848282.00, 8891828.00, 8492524.00,26, 129163
1239, 1848347.00, 8892437.00, 8492600.00,26, 129267
1240, 1848400.00, 8893410.00, 8492393.00,26, 129372
1241, 1848403.00, 8893853.00, 8492416.00,26, 129476
1242, 1848399.00, 8894190.00, 8492346.00,26, 129581
1243, 1848405.00, 8894554.00, 8492347.00,26, 129685
1244, 1848418.00, 8894892.00, 8492506.00,26, 129790
1245, 1848467.00, 8895106.00, 8492641.00,26, 129894
1246, 1848543.00, 8895361.00, 8492716.00,26, 129999
1247, 1848572.00, 8895680.00, 8492756.00,26, 130103
1248, 1848536.00, 8896350.00, 8492832.00,26, 130208
1249, 1848473.00, 8896825.00, 8492748.00,26, 130312
1250, 1848423.00, 8897418.00, 8492362.00,26, 130417
1251, 1848356.00, 8898038.00, 8492119.00,26, 130521
1252, 1848380.00, 8898607.00, 8492392.00,26, 130626
1253, 1848396.00, 8899121.00, 8492442.00,26, 130730
1254, 1848395.00, 8899636.00, 8492273.00,26, 130835
1255, 1848324.00, 8900095.00, 8492380.00,26, 130939
1256, 1848301.00, 8900960.00, 8492439.00,26, 131044
1257, 1848335.00, 8901303.00, 8492470.00,26, 131148
1258, 1848345.00, 8901551.00, 8492299.00,26, 131253
1259, 1848327.00, 8901743.00, 8492475.00,26, 131357
1260, 1848421.00, 8901931.00, 8492630.00,26, 131462
1261, 1848490.00, 8902132.00, 8492735.00,26, 131566
1262, 1848509.00, 8902285.00, 8492394.00,26, 131671
1263, 1848533.00, 8902489.00, 8492526.00,26, 131775
1264, 1848541.00, 8902837.00, 8492531.00,26, 131880
1265, 1848509.00, 8903158.00, 8492309.00,26, 131984
1266, 1848459.00, 8903501.00, 8492431.00,26, 132089
1267, 1848469.00, 8903880.00, 8492376.00,26, 132193
1268, 1848485.00, 8904306.00, 8492371.00,26, 132298
1269, 1848474.00, 8904741.00, 8492589.00,26, 132402
1270, 1848489.00, 8905164.00, 8492741.00,26, 132507
1271, 1848422.00, 8905493.00, 8492333.00,26, 132611
1272, 1848330.00, 8906244.00, 8492292.00,26, 132716
1273, 1848381.00, 8906573.00, 8492339.00,26, 132820
1274, 1848357.00, 8906866.00, 8492478.00,26, 132925
1275, 1848374.00, 8907076.00, 8492703.00,26, 133029
1276, 1848442.00, 8907305.00, 8492164.00,26, 133134
1277, 1848516.00, 8907525.00, 8492271.00,26, 133238
1278, 1848536.00, 8907743.00, 8492590.00,26, 133343
1279, 1848524.00, 8907918.00, 8492603.00,26, 133447
1280, 1848505.00, 8908188.00, 8492316.00,26, 133552
1281, 1848506.00, 8908390.00, 8492499.00,26, 133656
1282, 1848515.00, 8908647.00, 8492577.00,26, 133761
1283, 1848509.00, 8908916.00, 8492420.00,26, 133865
1284, 1848507.00, 8909194.00, 8492424.00,26, 133970
1285, 1848475.00, 8909554.00, 8492412.00,26, 134074
1286, 1848393.00, 8909914.00, 8492468.00,26, 134179
RECORDING Time: 12:14:0
BASELINE Time: 12:14:13
1, 1847863.00, 8927331.00, 8492700.00,26, 0
2, 1847847.00, 8927750.00, 8492792.00,26, 0
3, 1847676.00, 8927916.00, 8492677.00,26, 104
4, 1847324.00, 8928037.00, 8492624.00,26, 209
5, 1846978.00, 8928162.00, 8492637.00,26, 313
6, 1846984.00, 8928209.00, 8492605.00,26, 418
7, 1846979.00, 8928241.00, 8492646.00,26, 522
8, 1846999.00, 8928340.00, 8492592.00,26, 627
9, 1846962.00, 8928451.00, 8492427.00,26, 731
10, 1846992.00, 8928493.00, 8492406.00,26, 836
11, 1846964.00, 8928488.00, 8492394.00,26, 940
12, 1846895.00, 8928485.00, 8492563.00,26, 1045
13, 1846825.00, 8928449.00, 8492473.00,26, 1149
14, 1846756.00, 8928421.00, 8492252.00,26, 1254
15, 1846742.00, 8928440.00, 8492299.00,26, 1358
16, 1846655.00, 8928431.00, 8492605.00,26, 1463
17, 1846579.00, 8928485.00, 8492358.00,26, 1567
18, 1846604.00, 8928573.00, 8492483.00,26, 1672
19, 1846612.00, 8928722.00, 8492609.00,26, 1776
20, 1846579.00, 8928796.00, 8492615.00,26, 1881
21, 1846538.00, 8928849.00, 8492613.00,26, 1985
22, 1846561.00, 8928923.00, 8492700.00,26, 2090
23, 1846578.00, 8929028.00, 8492499.00,26, 2194
24, 1846545.00, 8929113.00, 8492565.00,26, 2299
25, 1846471.00, 8929157.00, 8492416.00,26, 2403
26, 1846447.00, 8929175.00, 8492493.00,26, 2508
27, 1846490.00, 8929139.00, 8492494.00,26, 2612
28, 1846530.00, 8929121.00, 8492571.00,26, 2717
29, 1846577.00, 8929113.00, 8492558.00,26, 2821
30, 1846626.00, 8929107.00, 8492445.00,26, 2926
31, 1846640.00, 8929167.00, 8492382.00,26, 3030
32, 1846602.00, 8929182.00, 8492317.00,26, 3135
33, 1846529.00, 8929214.00, 8492379.00,26, 3239
34, 1846485.00, 8929303.00, 8492892.00,26, 3344
35, 1846506.00, 8929389.00, 8492813.00,26, 3448
36, 1846555.00, 8929444.00, 8492623.00,26, 3553
37, 1846620.00, 8929501.00, 8492383.00,26, 3657
38, 1846637.00, 8929537.00, 8492446.00,26, 3762
39, 1846633.00, 8929585.00, 8492916.00,26, 3866
40, 1846637.00, 8929689.00, 8492788.00,26, 3971
41, 1846602.00, 8929674.00, 8492573.00,26, 4075
42, 1846600.00, 8929658.00, 8492356.00,26, 4180
43, 1846623.00, 8929660.00, 8492138.00,26, 4284
44, 1846642.00, 8929647.00, 8492347.00,26, 4389
45, 1846693.00, 8929629.00, 8492559.00,26, 4494
46, 1846646.00, 8929638.00, 8492667.00,26, 4598
47, 1846676.00, 8929675.00, 8492482.00,26, 4703
48, 1846718.00, 8929689.00, 8492475.00,26, 4807
49, 1846711.00, 8929782.00, 8492798.00,26, 4912
50, 1846666.00, 8929923.00, 8492649.00,26, 5016
51, 1846639.00, 8929954.00, 8492487.00,26, 5121
52, 1846626.00, 8930020.00, 8492505.00,26, 5225
53, 1846659.00, 8930140.00, 8492482.00,26, 5330
54, 1846649.00, 8930179.00, 8492472.00,26, 5434
55, 1846620.00, 8930219.00, 8492458.00,26, 5539
56, 1846650.00, 8930261.00, 8492401.00,26, 5643
57, 1846657.00, 8930309.00, 8492542.00,26, 5748
58, 1846629.00, 8930343.00, 8492801.00,26, 5852
59, 1846659.00, 8930331.00, 8492510.00,26, 5957
60, 1846744.00, 8930328.00, 8492519.00,26, 6061
61, 1846686.00, 8930332.00, 8492497.00,26, 6166
62, 1846653.00, 8930322.00, 8492586.00,26, 6270
63, 1846639.00, 8930294.00, 8492513.00,26, 6375
64, 1846661.00, 8930275.00, 8492510.00,26, 6479
65, 1846712.00, 8930337.00, 8492554.00,26, 6584
66, 1846688.00, 8930414.00, 8492656.00,26, 6688
67, 1846645.00, 8930468.00, 8492546.00,26, 6793
68, 1846649.00, 8930533.00, 8492609.00,26, 6897
69, 1846642.00, 8930655.00, 8492626.00,26, 7002
70, 1846680.00, 8930719.00, 8492664.00,26, 7106
71, 1846676.00, 8930796.00, 8492644.00,26, 7211
72, 1846678.00, 8930860.00, 8492493.00,26, 7315
73, 1846674.00, 8930878.00, 8492552.00,26, 7420
74, 1846621.00, 8930897.00, 8492468.00,26, 7524
75, 1846638.00, 8930894.00, 8492638.00,26, 7629
76, 1846631.00, 8930945.00, 8492572.00,26, 7733
77, 1846611.00, 8930917.00, 8492317.00,26, 7838
78, 1846673.00, 8930894.00, 8492411.00,26, 7942
79, 1846693.00, 8930915.00, 8492625.00,26, 8047
80, 1846695.00, 8930958.00, 8492492.00,26, 8151
81, 1846721.00, 8930926.00, 8492432.00,26, 8256
82, 1846768.00, 8930923.00, 8492346.00,26, 8360
83, 1846742.00, 8931095.00, 8492325.00,26, 8465
84, 1846726.00, 8931165.00, 8492454.00,26, 8569
85, 1846723.00, 8931242.00, 8492531.00,26, 8674
86, 1846724.00, 8931287.00, 8492515.00,26, 8778
87, 1846716.00, 8931303.00, 8492468.00,26, 8883
88, 1846718.00, 8931384.00, 8492619.00,26, 8987
89, 1846777.00, 8931459.00, 8492491.00,26, 9092
90, 1846764.00, 8931442.00, 8492448.00,26, 9196
91, 1846810.00, 8931549.00, 8492385.00,26, 9301
92, 1846795.00, 8931562.00, 8492505.00,26, 9405
93, 1846751.00, 8931564.00, 8492496.00,26, 9510
94, 1846805.00, 8931535.00, 8492453.00,26, 9614
95, 1846804.00, 8931557.00, 8492436.00,26, 9719
96, 1846804.00, 8931531.00, 8492401.00,26, 9823
97, 1846846.00, 8931487.00, 8492511.00,26, 9928
98, 1846859.00, 8931505.00, 8492587.00,26, 10032
99, 1846896.00, 8931587.00, 8492557.00,26, 10137
100, 1846864.00, 8931726.00, 8492780.00,26, 10241
101, 1846875.00, 8931838.00, 8492492.00,26, 10346
102, 1846905.00, 8931876.00, 8492510.00,26, 10450
103, 1846891.00, 8931876.00, 8492495.00,26, 10555
104, 1846913.00, 8931946.00, 8492279.00,26, 10659
105, 1846895.00, 8931976.00, 8492351.00,26, 10764
106, 1846846.00, 8932072.00, 8492270.00,26, 10868
107, 1846873.00, 8932120.00, 8492105.00,26, 10973
108, 1846955.00, 8932145.00, 8492248.00,26, 11077
109, 1847013.00, 8932225.00, 8492567.00,26, 11182
110, 1847031.00, 8932253.00, 8492712.00,26, 11286
111, 1847045.00, 8932202.00, 8492642.00,27, 11391
112, 1847024.00, 8932254.00, 8492757.00,27, 11495
113, 1847001.00, 8932283.00, 8492677.00,27, 11600
114, 1847005.00, 8932239.00, 8492499.00,27, 11704
115, 1846958.00, 8932344.00, 8492292.00,27, 11809
116, 1846946.00, 8932409.00, 8492423.00,27, 11913
117, 1847003.00, 8932499.00, 8492600.00,27, 12018
118, 1846983.00, 8932497.00, 8492835.00,27, 12122
119, 1846994.00, 8932521.00, 8492723.00,27, 12227
120, 1846965.00, 8932559.00, 8492545.00,27, 12331
121, 1846950.00, 8932674.00, 8492516.00,27, 12436
122, 1846954.00, 8932753.00, 8492518.00,27, 12540
123, 1846952.00, 8932776.00, 8492628.00,27, 12645
124, 1846960.00, 8932768.00, 8492500.00,27, 12749
125, 1846965.00, 8932726.00, 8492493.00,27, 12854
126, 1847283.00, 8932322.00, 8492222.00,27, 12958
127, 1847400.00, 8932215.00, 8492346.00,27, 13063
128, 1847485.00, 8932231.00, 8492563.00,27, 13167
129, 1847482.00, 8932233.00, 8492412.00,27, 13272
130, 1847436.00, 8932217.00, 8492337.00,27, 13376
131, 1847415.00, 8932330.00, 8492589.00,27, 13481
132, 1847381.00, 8932432.00, 8492482.00,27, 13585
133, 1847350.00, 8932459.00, 8492485.00,27, 13690
134, 1847375.00, 8932525.00, 8492312.00,27, 13794
135, 1847371.00, 8932577.00, 8492373.00,27, 13899
136, 1847309.00, 8932643.00, 8492500.00,27, 14003
137, 1847286.00, 8932773.00, 8492310.00,27, 14108
138, 1847306.00, 8932817.00, 8492590.00,27, 14212
139, 1847307.00, 8932971.00, 8492529.00,27, 14317
140, 1847304.00, 8933022.00, 8492452.00,27, 14421
141, 1847340.00, 8933028.00, 8492401.00,27, 14526
142, 1847358.00, 8933039.00, 8492254.00,27, 14630
143, 1847339.00, 8933147.00, 8492328.00,27, 14735
144, 1847345.00, 8933186.00, 8492542.00,27, 14839
145, 1847293.00, 8933143.00, 8492533.00,27, 14944
146, 1847183.00, 8933100.00, 8492370.00,27, 15048
147, 1846865.00, 8932764.00, 8492505.00,27, 15153
BASELINE Time: 12:14:28
